# E (eV)   ldos(E)   pdos(E)    pdos(E)    pdos(E)   
   3.148  0.800E-04  0.267E-04  0.267E-04  0.267E-04
   3.198  0.214E-02  0.714E-03  0.714E-03  0.714E-03
   3.248  0.510E-02  0.170E-02  0.170E-02  0.170E-02
   3.298  0.746E-02  0.249E-02  0.249E-02  0.249E-02
   3.348  0.102E-01  0.339E-02  0.339E-02  0.339E-02
   3.398  0.134E-01  0.445E-02  0.445E-02  0.445E-02
   3.448  0.169E-01  0.564E-02  0.564E-02  0.564E-02
   3.498  0.203E-01  0.676E-02  0.676E-02  0.676E-02
   3.548  0.226E-01  0.754E-02  0.754E-02  0.754E-02
   3.598  0.249E-01  0.829E-02  0.829E-02  0.829E-02
   3.648  0.276E-01  0.920E-02  0.920E-02  0.920E-02
   3.698  0.304E-01  0.101E-01  0.101E-01  0.101E-01
   3.748  0.332E-01  0.111E-01  0.111E-01  0.111E-01
   3.798  0.360E-01  0.120E-01  0.120E-01  0.120E-01
   3.848  0.388E-01  0.129E-01  0.129E-01  0.129E-01
   3.898  0.414E-01  0.138E-01  0.138E-01  0.138E-01
   3.948  0.434E-01  0.145E-01  0.145E-01  0.145E-01
   3.998  0.454E-01  0.151E-01  0.151E-01  0.151E-01
   4.048  0.477E-01  0.159E-01  0.159E-01  0.159E-01
   4.098  0.499E-01  0.166E-01  0.166E-01  0.166E-01
   4.148  0.522E-01  0.174E-01  0.174E-01  0.174E-01
   4.198  0.542E-01  0.181E-01  0.181E-01  0.181E-01
   4.248  0.562E-01  0.187E-01  0.187E-01  0.187E-01
   4.298  0.585E-01  0.195E-01  0.195E-01  0.195E-01
   4.348  0.608E-01  0.203E-01  0.203E-01  0.203E-01
   4.398  0.632E-01  0.211E-01  0.211E-01  0.211E-01
   4.448  0.653E-01  0.218E-01  0.218E-01  0.218E-01
   4.498  0.671E-01  0.223E-01  0.224E-01  0.224E-01
   4.548  0.688E-01  0.229E-01  0.230E-01  0.230E-01
   4.598  0.707E-01  0.234E-01  0.236E-01  0.236E-01
   4.648  0.725E-01  0.240E-01  0.243E-01  0.243E-01
   4.698  0.744E-01  0.245E-01  0.249E-01  0.249E-01
   4.748  0.762E-01  0.251E-01  0.256E-01  0.256E-01
   4.798  0.780E-01  0.256E-01  0.262E-01  0.262E-01
   4.848  0.799E-01  0.261E-01  0.269E-01  0.269E-01
   4.898  0.819E-01  0.267E-01  0.276E-01  0.276E-01
   4.948  0.840E-01  0.273E-01  0.283E-01  0.283E-01
   4.998  0.860E-01  0.279E-01  0.290E-01  0.290E-01
   5.048  0.881E-01  0.286E-01  0.298E-01  0.298E-01
   5.098  0.900E-01  0.292E-01  0.304E-01  0.304E-01
   5.148  0.907E-01  0.294E-01  0.307E-01  0.307E-01
   5.198  0.910E-01  0.295E-01  0.307E-01  0.307E-01
   5.248  0.919E-01  0.300E-01  0.310E-01  0.310E-01
   5.298  0.927E-01  0.304E-01  0.312E-01  0.312E-01
   5.348  0.937E-01  0.310E-01  0.313E-01  0.313E-01
   5.398  0.944E-01  0.317E-01  0.314E-01  0.314E-01
   5.448  0.951E-01  0.324E-01  0.313E-01  0.313E-01
   5.498  0.959E-01  0.333E-01  0.313E-01  0.313E-01
   5.548  0.971E-01  0.343E-01  0.314E-01  0.314E-01
   5.598  0.982E-01  0.355E-01  0.314E-01  0.314E-01
   5.648  0.992E-01  0.368E-01  0.312E-01  0.312E-01
   5.698  0.100E+00  0.383E-01  0.310E-01  0.310E-01
   5.748  0.102E+00  0.400E-01  0.308E-01  0.308E-01
   5.798  0.103E+00  0.419E-01  0.304E-01  0.304E-01
   5.848  0.104E+00  0.440E-01  0.301E-01  0.301E-01
   5.898  0.110E+00  0.465E-01  0.319E-01  0.319E-01
   5.948  0.118E+00  0.482E-01  0.347E-01  0.347E-01
   5.998  0.121E+00  0.476E-01  0.364E-01  0.364E-01
   6.048  0.124E+00  0.473E-01  0.383E-01  0.383E-01
   6.098  0.128E+00  0.472E-01  0.403E-01  0.403E-01
   6.148  0.132E+00  0.472E-01  0.423E-01  0.423E-01
   6.198  0.134E+00  0.472E-01  0.434E-01  0.434E-01
   6.248  0.136E+00  0.468E-01  0.444E-01  0.444E-01
   6.298  0.137E+00  0.465E-01  0.451E-01  0.451E-01
   6.348  0.138E+00  0.464E-01  0.460E-01  0.460E-01
   6.398  0.140E+00  0.461E-01  0.468E-01  0.468E-01
   6.448  0.142E+00  0.464E-01  0.480E-01  0.480E-01
   6.498  0.145E+00  0.472E-01  0.488E-01  0.488E-01
   6.548  0.146E+00  0.473E-01  0.491E-01  0.491E-01
   6.598  0.147E+00  0.473E-01  0.497E-01  0.497E-01
   6.648  0.147E+00  0.468E-01  0.499E-01  0.499E-01
   6.698  0.148E+00  0.466E-01  0.505E-01  0.505E-01
   6.748  0.150E+00  0.466E-01  0.516E-01  0.516E-01
   6.798  0.152E+00  0.463E-01  0.528E-01  0.528E-01
   6.848  0.154E+00  0.456E-01  0.543E-01  0.543E-01
   6.898  0.156E+00  0.447E-01  0.557E-01  0.557E-01
   6.948  0.160E+00  0.454E-01  0.573E-01  0.573E-01
   6.998  0.162E+00  0.444E-01  0.586E-01  0.586E-01
   7.048  0.163E+00  0.435E-01  0.597E-01  0.597E-01
   7.098  0.165E+00  0.435E-01  0.607E-01  0.607E-01
   7.148  0.165E+00  0.435E-01  0.609E-01  0.609E-01
   7.198  0.165E+00  0.441E-01  0.605E-01  0.605E-01
   7.248  0.165E+00  0.454E-01  0.596E-01  0.596E-01
   7.298  0.164E+00  0.472E-01  0.583E-01  0.583E-01
   7.348  0.181E+00  0.637E-01  0.586E-01  0.586E-01
   7.398  0.179E+00  0.651E-01  0.568E-01  0.568E-01
   7.448  0.175E+00  0.596E-01  0.575E-01  0.575E-01
   7.498  0.165E+00  0.565E-01  0.544E-01  0.544E-01
   7.548  0.158E+00  0.529E-01  0.524E-01  0.524E-01
   7.598  0.162E+00  0.537E-01  0.544E-01  0.544E-01
   7.648  0.168E+00  0.544E-01  0.566E-01  0.566E-01
   7.698  0.152E+00  0.484E-01  0.518E-01  0.518E-01
   7.748  0.154E+00  0.498E-01  0.521E-01  0.521E-01
   7.798  0.165E+00  0.554E-01  0.550E-01  0.550E-01
   7.848  0.165E+00  0.594E-01  0.529E-01  0.529E-01
   7.898  0.166E+00  0.616E-01  0.522E-01  0.522E-01
   7.948  0.162E+00  0.584E-01  0.516E-01  0.516E-01
   7.998  0.148E+00  0.531E-01  0.477E-01  0.477E-01
   8.048  0.142E+00  0.500E-01  0.460E-01  0.460E-01
   8.098  0.139E+00  0.477E-01  0.455E-01  0.455E-01
   8.148  0.129E+00  0.451E-01  0.419E-01  0.419E-01
   8.198  0.116E+00  0.406E-01  0.379E-01  0.379E-01
   8.248  0.115E+00  0.396E-01  0.377E-01  0.377E-01
   8.298  0.114E+00  0.387E-01  0.376E-01  0.376E-01
   8.348  0.119E+00  0.396E-01  0.395E-01  0.395E-01
   8.398  0.134E+00  0.446E-01  0.446E-01  0.446E-01
   8.448  0.140E+00  0.466E-01  0.467E-01  0.467E-01
   8.498  0.138E+00  0.472E-01  0.455E-01  0.455E-01
   8.548  0.135E+00  0.452E-01  0.450E-01  0.450E-01
   8.598  0.113E+00  0.376E-01  0.375E-01  0.375E-01
   8.648  0.132E+00  0.440E-01  0.442E-01  0.442E-01
   8.698  0.142E+00  0.472E-01  0.472E-01  0.472E-01
   8.748  0.141E+00  0.474E-01  0.469E-01  0.469E-01
   8.798  0.120E+00  0.400E-01  0.401E-01  0.401E-01
   8.848  0.127E+00  0.425E-01  0.423E-01  0.423E-01
   8.898  0.130E+00  0.446E-01  0.427E-01  0.427E-01
   8.948  0.135E+00  0.464E-01  0.445E-01  0.445E-01
   8.998  0.165E+00  0.532E-01  0.558E-01  0.558E-01
   9.048  0.180E+00  0.584E-01  0.609E-01  0.609E-01
   9.098  0.190E+00  0.624E-01  0.637E-01  0.637E-01
   9.148  0.196E+00  0.648E-01  0.655E-01  0.655E-01
   9.198  0.211E+00  0.711E-01  0.699E-01  0.699E-01
   9.248  0.215E+00  0.725E-01  0.711E-01  0.711E-01
   9.298  0.201E+00  0.688E-01  0.659E-01  0.659E-01
   9.348  0.194E+00  0.645E-01  0.650E-01  0.650E-01
   9.398  0.224E+00  0.729E-01  0.756E-01  0.756E-01
   9.448  0.239E+00  0.807E-01  0.789E-01  0.789E-01
   9.498  0.199E+00  0.667E-01  0.663E-01  0.663E-01
   9.548  0.244E+00  0.837E-01  0.799E-01  0.799E-01
   9.598  0.192E+00  0.623E-01  0.646E-01  0.646E-01
   9.648  0.191E+00  0.653E-01  0.631E-01  0.631E-01
   9.698  0.106E+00  0.335E-01  0.360E-01  0.360E-01
   9.748  0.131E+00  0.435E-01  0.435E-01  0.435E-01
   9.798  0.138E+00  0.466E-01  0.454E-01  0.454E-01
   9.848  0.123E+00  0.409E-01  0.408E-01  0.408E-01
   9.898  0.108E+00  0.359E-01  0.361E-01  0.361E-01
   9.948  0.102E+00  0.338E-01  0.339E-01  0.339E-01
   9.998  0.985E-01  0.329E-01  0.328E-01  0.328E-01
  10.048  0.962E-01  0.323E-01  0.319E-01  0.319E-01
  10.098  0.102E+00  0.342E-01  0.339E-01  0.339E-01
  10.148  0.869E-01  0.292E-01  0.288E-01  0.288E-01
  10.198  0.851E-01  0.286E-01  0.283E-01  0.283E-01
  10.248  0.902E-01  0.303E-01  0.299E-01  0.299E-01
  10.298  0.819E-01  0.270E-01  0.275E-01  0.275E-01
  10.348  0.728E-01  0.237E-01  0.245E-01  0.245E-01
  10.398  0.735E-01  0.246E-01  0.244E-01  0.244E-01
  10.448  0.659E-01  0.221E-01  0.219E-01  0.219E-01
  10.498  0.567E-01  0.190E-01  0.189E-01  0.189E-01
  10.548  0.562E-01  0.186E-01  0.188E-01  0.188E-01
  10.598  0.627E-01  0.212E-01  0.207E-01  0.207E-01
  10.648  0.563E-01  0.193E-01  0.185E-01  0.185E-01
  10.698  0.479E-01  0.163E-01  0.158E-01  0.158E-01
  10.748  0.499E-01  0.165E-01  0.167E-01  0.167E-01
  10.798  0.285E-01  0.979E-02  0.935E-02  0.935E-02
  10.848  0.369E-01  0.123E-01  0.123E-01  0.123E-01
  10.898  0.605E-01  0.170E-01  0.217E-01  0.217E-01
  10.948  0.589E-01  0.181E-01  0.204E-01  0.204E-01
  10.998  0.487E-01  0.149E-01  0.169E-01  0.169E-01
  11.048  0.552E-01  0.169E-01  0.192E-01  0.192E-01
  11.098  0.618E-01  0.190E-01  0.214E-01  0.214E-01
  11.148  0.670E-01  0.206E-01  0.232E-01  0.232E-01
  11.198  0.706E-01  0.220E-01  0.243E-01  0.243E-01
  11.248  0.736E-01  0.227E-01  0.255E-01  0.255E-01
  11.298  0.797E-01  0.247E-01  0.275E-01  0.275E-01
  11.348  0.855E-01  0.276E-01  0.289E-01  0.289E-01
  11.398  0.907E-01  0.295E-01  0.306E-01  0.306E-01
  11.448  0.976E-01  0.315E-01  0.331E-01  0.331E-01
  11.498  0.103E+00  0.326E-01  0.353E-01  0.353E-01
  11.548  0.107E+00  0.334E-01  0.365E-01  0.365E-01
  11.598  0.106E+00  0.328E-01  0.365E-01  0.365E-01
  11.648  0.104E+00  0.329E-01  0.357E-01  0.357E-01
  11.698  0.100E+00  0.317E-01  0.343E-01  0.343E-01
  11.748  0.101E+00  0.315E-01  0.348E-01  0.348E-01
  11.798  0.105E+00  0.322E-01  0.365E-01  0.365E-01
  11.848  0.109E+00  0.327E-01  0.382E-01  0.382E-01
  11.898  0.111E+00  0.322E-01  0.392E-01  0.392E-01
  11.948  0.114E+00  0.323E-01  0.407E-01  0.407E-01
  11.998  0.115E+00  0.318E-01  0.417E-01  0.417E-01
  12.048  0.116E+00  0.315E-01  0.425E-01  0.425E-01
  12.098  0.119E+00  0.323E-01  0.434E-01  0.434E-01
  12.148  0.129E+00  0.367E-01  0.462E-01  0.462E-01
  12.198  0.134E+00  0.416E-01  0.460E-01  0.460E-01
  12.248  0.135E+00  0.443E-01  0.452E-01  0.452E-01
  12.298  0.132E+00  0.464E-01  0.429E-01  0.429E-01
  12.348  0.135E+00  0.482E-01  0.435E-01  0.435E-01
  12.398  0.137E+00  0.493E-01  0.439E-01  0.439E-01
  12.448  0.139E+00  0.500E-01  0.444E-01  0.444E-01
  12.498  0.141E+00  0.504E-01  0.451E-01  0.451E-01
  12.548  0.143E+00  0.508E-01  0.462E-01  0.462E-01
  12.598  0.146E+00  0.509E-01  0.473E-01  0.473E-01
  12.648  0.148E+00  0.514E-01  0.485E-01  0.485E-01
  12.698  0.152E+00  0.521E-01  0.498E-01  0.498E-01
  12.748  0.154E+00  0.524E-01  0.509E-01  0.509E-01
  12.798  0.155E+00  0.530E-01  0.508E-01  0.508E-01
  12.848  0.151E+00  0.533E-01  0.490E-01  0.490E-01
  12.898  0.150E+00  0.533E-01  0.481E-01  0.481E-01
  12.948  0.151E+00  0.538E-01  0.485E-01  0.485E-01
  12.998  0.156E+00  0.548E-01  0.507E-01  0.507E-01
  13.048  0.155E+00  0.536E-01  0.506E-01  0.506E-01
  13.098  0.150E+00  0.531E-01  0.485E-01  0.485E-01
  13.148  0.146E+00  0.507E-01  0.476E-01  0.476E-01
  13.198  0.144E+00  0.494E-01  0.471E-01  0.471E-01
  13.248  0.143E+00  0.491E-01  0.468E-01  0.468E-01
  13.298  0.144E+00  0.495E-01  0.473E-01  0.473E-01
  13.348  0.145E+00  0.496E-01  0.475E-01  0.475E-01
  13.398  0.144E+00  0.492E-01  0.474E-01  0.474E-01
  13.448  0.144E+00  0.490E-01  0.475E-01  0.475E-01
  13.498  0.145E+00  0.492E-01  0.480E-01  0.480E-01
  13.548  0.149E+00  0.505E-01  0.494E-01  0.494E-01
  13.598  0.154E+00  0.519E-01  0.510E-01  0.510E-01
  13.648  0.157E+00  0.529E-01  0.520E-01  0.520E-01
  13.698  0.156E+00  0.523E-01  0.517E-01  0.517E-01
  13.748  0.155E+00  0.521E-01  0.516E-01  0.516E-01
  13.798  0.156E+00  0.523E-01  0.516E-01  0.516E-01
  13.848  0.157E+00  0.531E-01  0.521E-01  0.521E-01
  13.898  0.160E+00  0.545E-01  0.530E-01  0.530E-01
  13.948  0.164E+00  0.559E-01  0.540E-01  0.540E-01
  13.998  0.167E+00  0.572E-01  0.551E-01  0.551E-01
  14.048  0.171E+00  0.583E-01  0.563E-01  0.563E-01
  14.098  0.174E+00  0.592E-01  0.573E-01  0.573E-01
  14.148  0.172E+00  0.584E-01  0.568E-01  0.568E-01
  14.198  0.167E+00  0.570E-01  0.549E-01  0.549E-01
  14.248  0.164E+00  0.562E-01  0.539E-01  0.539E-01
  14.298  0.162E+00  0.554E-01  0.532E-01  0.532E-01
  14.348  0.159E+00  0.545E-01  0.523E-01  0.523E-01
  14.398  0.157E+00  0.538E-01  0.516E-01  0.516E-01
  14.448  0.155E+00  0.531E-01  0.510E-01  0.510E-01
  14.498  0.153E+00  0.524E-01  0.504E-01  0.504E-01
  14.548  0.151E+00  0.517E-01  0.498E-01  0.498E-01
  14.598  0.149E+00  0.507E-01  0.489E-01  0.489E-01
  14.648  0.148E+00  0.504E-01  0.487E-01  0.487E-01
  14.698  0.147E+00  0.499E-01  0.485E-01  0.485E-01
  14.748  0.146E+00  0.495E-01  0.483E-01  0.483E-01
  14.798  0.146E+00  0.493E-01  0.482E-01  0.482E-01
  14.848  0.145E+00  0.489E-01  0.480E-01  0.480E-01
  14.898  0.144E+00  0.484E-01  0.477E-01  0.477E-01
  14.948  0.144E+00  0.482E-01  0.477E-01  0.477E-01
  14.998  0.143E+00  0.480E-01  0.477E-01  0.477E-01
  15.048  0.143E+00  0.477E-01  0.474E-01  0.474E-01
  15.098  0.142E+00  0.475E-01  0.474E-01  0.474E-01
  15.148  0.141E+00  0.472E-01  0.470E-01  0.470E-01
  15.198  0.140E+00  0.468E-01  0.466E-01  0.466E-01
  15.248  0.140E+00  0.467E-01  0.465E-01  0.465E-01
  15.298  0.139E+00  0.466E-01  0.464E-01  0.464E-01
  15.348  0.138E+00  0.463E-01  0.461E-01  0.461E-01
  15.398  0.137E+00  0.458E-01  0.457E-01  0.457E-01
  15.448  0.136E+00  0.453E-01  0.453E-01  0.453E-01
  15.498  0.128E+00  0.427E-01  0.425E-01  0.425E-01
  15.548  0.126E+00  0.421E-01  0.420E-01  0.420E-01
  15.598  0.124E+00  0.415E-01  0.414E-01  0.414E-01
  15.648  0.123E+00  0.410E-01  0.409E-01  0.409E-01
  15.698  0.121E+00  0.402E-01  0.402E-01  0.402E-01
  15.748  0.119E+00  0.396E-01  0.397E-01  0.397E-01
  15.798  0.117E+00  0.389E-01  0.389E-01  0.389E-01
  15.848  0.114E+00  0.382E-01  0.381E-01  0.381E-01
  15.898  0.112E+00  0.376E-01  0.374E-01  0.374E-01
  15.948  0.111E+00  0.372E-01  0.370E-01  0.370E-01
  15.998  0.110E+00  0.369E-01  0.366E-01  0.366E-01
  16.048  0.109E+00  0.365E-01  0.362E-01  0.362E-01
  16.098  0.108E+00  0.361E-01  0.359E-01  0.359E-01
  16.148  0.106E+00  0.355E-01  0.355E-01  0.355E-01
  16.198  0.106E+00  0.351E-01  0.353E-01  0.353E-01
  16.248  0.106E+00  0.351E-01  0.355E-01  0.355E-01
  16.298  0.110E+00  0.363E-01  0.367E-01  0.367E-01
  16.348  0.112E+00  0.374E-01  0.374E-01  0.374E-01
  16.398  0.112E+00  0.376E-01  0.373E-01  0.373E-01
  16.448  0.114E+00  0.383E-01  0.379E-01  0.379E-01
  16.498  0.118E+00  0.395E-01  0.392E-01  0.392E-01
  16.548  0.120E+00  0.404E-01  0.399E-01  0.399E-01
  16.598  0.123E+00  0.418E-01  0.406E-01  0.406E-01
  16.648  0.121E+00  0.408E-01  0.399E-01  0.399E-01
  16.698  0.121E+00  0.408E-01  0.399E-01  0.399E-01
  16.748  0.121E+00  0.410E-01  0.399E-01  0.399E-01
  16.798  0.122E+00  0.414E-01  0.403E-01  0.403E-01
  16.848  0.125E+00  0.422E-01  0.412E-01  0.412E-01
  16.898  0.124E+00  0.419E-01  0.408E-01  0.408E-01
  16.948  0.116E+00  0.395E-01  0.382E-01  0.382E-01
  16.998  0.114E+00  0.389E-01  0.374E-01  0.374E-01
  17.048  0.114E+00  0.391E-01  0.374E-01  0.374E-01
  17.098  0.112E+00  0.386E-01  0.367E-01  0.367E-01
  17.148  0.106E+00  0.363E-01  0.351E-01  0.351E-01
  17.198  0.103E+00  0.351E-01  0.342E-01  0.342E-01
  17.248  0.104E+00  0.352E-01  0.343E-01  0.343E-01
  17.298  0.109E+00  0.369E-01  0.361E-01  0.361E-01
  17.348  0.115E+00  0.388E-01  0.380E-01  0.380E-01
  17.398  0.120E+00  0.405E-01  0.398E-01  0.398E-01
  17.448  0.123E+00  0.414E-01  0.409E-01  0.409E-01
  17.498  0.127E+00  0.427E-01  0.424E-01  0.424E-01
  17.548  0.130E+00  0.436E-01  0.434E-01  0.434E-01
  17.598  0.132E+00  0.440E-01  0.441E-01  0.441E-01
  17.648  0.138E+00  0.459E-01  0.462E-01  0.462E-01
  17.698  0.147E+00  0.481E-01  0.497E-01  0.497E-01
  17.748  0.139E+00  0.459E-01  0.468E-01  0.468E-01
  17.798  0.134E+00  0.445E-01  0.447E-01  0.447E-01
  17.848  0.136E+00  0.451E-01  0.454E-01  0.454E-01
  17.898  0.138E+00  0.458E-01  0.462E-01  0.462E-01
  17.948  0.140E+00  0.463E-01  0.469E-01  0.469E-01
  17.998  0.139E+00  0.459E-01  0.465E-01  0.465E-01
  18.048  0.137E+00  0.451E-01  0.462E-01  0.462E-01
  18.098  0.137E+00  0.447E-01  0.459E-01  0.459E-01
  18.148  0.136E+00  0.444E-01  0.457E-01  0.457E-01
  18.198  0.136E+00  0.442E-01  0.457E-01  0.457E-01
  18.248  0.135E+00  0.440E-01  0.455E-01  0.455E-01
  18.298  0.134E+00  0.435E-01  0.450E-01  0.450E-01
  18.348  0.132E+00  0.431E-01  0.444E-01  0.444E-01
  18.398  0.132E+00  0.432E-01  0.444E-01  0.444E-01
  18.448  0.132E+00  0.434E-01  0.445E-01  0.445E-01
  18.498  0.133E+00  0.438E-01  0.446E-01  0.446E-01
  18.548  0.134E+00  0.444E-01  0.449E-01  0.449E-01
  18.598  0.137E+00  0.457E-01  0.456E-01  0.456E-01
  18.648  0.143E+00  0.485E-01  0.475E-01  0.475E-01
  18.698  0.148E+00  0.489E-01  0.493E-01  0.493E-01
  18.748  0.145E+00  0.481E-01  0.485E-01  0.485E-01
  18.798  0.142E+00  0.480E-01  0.472E-01  0.472E-01
  18.848  0.137E+00  0.467E-01  0.453E-01  0.453E-01
  18.898  0.134E+00  0.457E-01  0.441E-01  0.441E-01
  18.948  0.132E+00  0.450E-01  0.433E-01  0.433E-01
  18.998  0.130E+00  0.445E-01  0.426E-01  0.426E-01
  19.048  0.128E+00  0.440E-01  0.421E-01  0.421E-01
  19.098  0.127E+00  0.437E-01  0.418E-01  0.418E-01
  19.148  0.127E+00  0.434E-01  0.416E-01  0.416E-01
  19.198  0.126E+00  0.431E-01  0.414E-01  0.414E-01
  19.248  0.125E+00  0.428E-01  0.412E-01  0.412E-01
  19.298  0.124E+00  0.423E-01  0.409E-01  0.409E-01
  19.348  0.123E+00  0.420E-01  0.407E-01  0.407E-01
  19.398  0.123E+00  0.417E-01  0.405E-01  0.405E-01
  19.448  0.122E+00  0.414E-01  0.404E-01  0.404E-01
  19.498  0.123E+00  0.417E-01  0.407E-01  0.407E-01
  19.548  0.126E+00  0.426E-01  0.416E-01  0.416E-01
  19.598  0.126E+00  0.425E-01  0.417E-01  0.417E-01
  19.648  0.128E+00  0.433E-01  0.425E-01  0.425E-01
  19.698  0.133E+00  0.448E-01  0.439E-01  0.439E-01
  19.748  0.132E+00  0.447E-01  0.435E-01  0.435E-01
  19.798  0.130E+00  0.441E-01  0.432E-01  0.432E-01
  19.848  0.132E+00  0.449E-01  0.437E-01  0.437E-01
  19.898  0.141E+00  0.480E-01  0.465E-01  0.465E-01
  19.948  0.145E+00  0.495E-01  0.475E-01  0.475E-01
  19.998  0.147E+00  0.498E-01  0.486E-01  0.486E-01
  20.048  0.147E+00  0.486E-01  0.492E-01  0.492E-01
  20.098  0.138E+00  0.454E-01  0.464E-01  0.464E-01
  20.148  0.133E+00  0.439E-01  0.444E-01  0.444E-01
  20.198  0.130E+00  0.431E-01  0.432E-01  0.432E-01
  20.248  0.132E+00  0.440E-01  0.439E-01  0.439E-01
  20.298  0.133E+00  0.442E-01  0.446E-01  0.446E-01
  20.348  0.127E+00  0.422E-01  0.426E-01  0.426E-01
  20.398  0.124E+00  0.410E-01  0.414E-01  0.414E-01
  20.448  0.121E+00  0.401E-01  0.406E-01  0.406E-01
  20.498  0.118E+00  0.389E-01  0.396E-01  0.396E-01
  20.548  0.115E+00  0.377E-01  0.387E-01  0.387E-01
  20.598  0.103E+00  0.337E-01  0.344E-01  0.344E-01
  20.648  0.950E-01  0.313E-01  0.319E-01  0.319E-01
  20.698  0.891E-01  0.295E-01  0.298E-01  0.298E-01
  20.748  0.843E-01  0.280E-01  0.282E-01  0.282E-01
  20.798  0.803E-01  0.267E-01  0.268E-01  0.268E-01
  20.848  0.770E-01  0.257E-01  0.256E-01  0.256E-01
  20.898  0.731E-01  0.246E-01  0.243E-01  0.243E-01
  20.948  0.674E-01  0.228E-01  0.223E-01  0.223E-01
  20.998  0.599E-01  0.204E-01  0.198E-01  0.198E-01
  21.048  0.523E-01  0.180E-01  0.172E-01  0.172E-01
  21.098  0.460E-01  0.160E-01  0.150E-01  0.150E-01
  21.148  0.357E-01  0.126E-01  0.115E-01  0.115E-01
  21.198  0.310E-01  0.112E-01  0.992E-02  0.992E-02
  21.248  0.266E-01  0.968E-02  0.844E-02  0.844E-02
  21.298  0.218E-01  0.794E-02  0.694E-02  0.694E-02
  21.348  0.178E-01  0.635E-02  0.572E-02  0.572E-02
  21.398  0.146E-01  0.503E-02  0.478E-02  0.478E-02
  21.448  0.121E-01  0.407E-02  0.403E-02  0.403E-02
  21.498  0.102E-01  0.342E-02  0.341E-02  0.341E-02
  21.548  0.861E-02  0.286E-02  0.288E-02  0.288E-02
  21.598  0.715E-02  0.234E-02  0.240E-02  0.240E-02
  21.648  0.580E-02  0.186E-02  0.197E-02  0.197E-02
  21.698  0.469E-02  0.146E-02  0.161E-02  0.161E-02
  21.748  0.378E-02  0.115E-02  0.132E-02  0.132E-02
  21.798  0.302E-02  0.890E-03  0.106E-02  0.106E-02
  21.848  0.237E-02  0.675E-03  0.849E-03  0.849E-03
  21.898  0.183E-02  0.502E-03  0.664E-03  0.664E-03
  21.948  0.138E-02  0.365E-03  0.506E-03  0.506E-03
  21.998  0.100E-02  0.259E-03  0.371E-03  0.371E-03
  22.048  0.699E-03  0.180E-03  0.259E-03  0.259E-03
  22.098  0.454E-03  0.120E-03  0.167E-03  0.167E-03
