# E (eV)   ldos(E)   pdos(E)    pdos(E)    pdos(E)   
   3.148  0.800E-04  0.267E-04  0.267E-04  0.267E-04
   3.198  0.214E-02  0.714E-03  0.714E-03  0.714E-03
   3.248  0.510E-02  0.170E-02  0.170E-02  0.170E-02
   3.298  0.746E-02  0.249E-02  0.249E-02  0.249E-02
   3.348  0.102E-01  0.339E-02  0.339E-02  0.339E-02
   3.398  0.134E-01  0.445E-02  0.445E-02  0.445E-02
   3.448  0.169E-01  0.564E-02  0.564E-02  0.564E-02
   3.498  0.203E-01  0.676E-02  0.676E-02  0.676E-02
   3.548  0.226E-01  0.754E-02  0.754E-02  0.754E-02
   3.598  0.249E-01  0.829E-02  0.829E-02  0.829E-02
   3.648  0.276E-01  0.920E-02  0.920E-02  0.920E-02
   3.698  0.304E-01  0.101E-01  0.101E-01  0.101E-01
   3.748  0.332E-01  0.111E-01  0.111E-01  0.111E-01
   3.798  0.360E-01  0.120E-01  0.120E-01  0.120E-01
   3.848  0.388E-01  0.129E-01  0.129E-01  0.129E-01
   3.898  0.414E-01  0.138E-01  0.138E-01  0.138E-01
   3.948  0.434E-01  0.145E-01  0.145E-01  0.145E-01
   3.998  0.454E-01  0.151E-01  0.151E-01  0.151E-01
   4.048  0.477E-01  0.159E-01  0.159E-01  0.159E-01
   4.098  0.499E-01  0.166E-01  0.166E-01  0.166E-01
   4.148  0.522E-01  0.174E-01  0.174E-01  0.174E-01
   4.198  0.542E-01  0.181E-01  0.181E-01  0.181E-01
   4.248  0.562E-01  0.187E-01  0.187E-01  0.187E-01
   4.298  0.585E-01  0.195E-01  0.195E-01  0.195E-01
   4.348  0.608E-01  0.203E-01  0.203E-01  0.203E-01
   4.398  0.632E-01  0.211E-01  0.211E-01  0.211E-01
   4.448  0.653E-01  0.218E-01  0.218E-01  0.218E-01
   4.498  0.671E-01  0.224E-01  0.224E-01  0.224E-01
   4.548  0.687E-01  0.229E-01  0.229E-01  0.229E-01
   4.598  0.704E-01  0.235E-01  0.235E-01  0.235E-01
   4.648  0.721E-01  0.240E-01  0.240E-01  0.240E-01
   4.698  0.737E-01  0.246E-01  0.246E-01  0.246E-01
   4.748  0.753E-01  0.251E-01  0.251E-01  0.251E-01
   4.798  0.769E-01  0.256E-01  0.256E-01  0.256E-01
   4.848  0.786E-01  0.262E-01  0.262E-01  0.262E-01
   4.898  0.804E-01  0.268E-01  0.268E-01  0.268E-01
   4.948  0.823E-01  0.274E-01  0.274E-01  0.274E-01
   4.998  0.842E-01  0.281E-01  0.281E-01  0.281E-01
   5.048  0.861E-01  0.287E-01  0.287E-01  0.287E-01
   5.098  0.880E-01  0.293E-01  0.293E-01  0.293E-01
   5.148  0.887E-01  0.296E-01  0.296E-01  0.296E-01
   5.198  0.891E-01  0.297E-01  0.297E-01  0.297E-01
   5.248  0.904E-01  0.301E-01  0.301E-01  0.301E-01
   5.298  0.919E-01  0.306E-01  0.306E-01  0.306E-01
   5.348  0.936E-01  0.312E-01  0.312E-01  0.312E-01
   5.398  0.955E-01  0.318E-01  0.318E-01  0.318E-01
   5.448  0.975E-01  0.325E-01  0.325E-01  0.325E-01
   5.498  0.999E-01  0.333E-01  0.333E-01  0.333E-01
   5.548  0.103E+00  0.343E-01  0.343E-01  0.343E-01
   5.598  0.106E+00  0.354E-01  0.354E-01  0.354E-01
   5.648  0.110E+00  0.366E-01  0.366E-01  0.366E-01
   5.698  0.114E+00  0.379E-01  0.379E-01  0.379E-01
   5.748  0.118E+00  0.394E-01  0.394E-01  0.394E-01
   5.798  0.123E+00  0.411E-01  0.411E-01  0.411E-01
   5.848  0.129E+00  0.429E-01  0.429E-01  0.429E-01
   5.898  0.136E+00  0.452E-01  0.452E-01  0.452E-01
   5.948  0.140E+00  0.466E-01  0.466E-01  0.466E-01
   5.998  0.137E+00  0.458E-01  0.458E-01  0.458E-01
   6.048  0.136E+00  0.453E-01  0.453E-01  0.453E-01
   6.098  0.136E+00  0.452E-01  0.452E-01  0.452E-01
   6.148  0.135E+00  0.451E-01  0.451E-01  0.451E-01
   6.198  0.135E+00  0.450E-01  0.450E-01  0.450E-01
   6.248  0.134E+00  0.446E-01  0.446E-01  0.446E-01
   6.298  0.133E+00  0.443E-01  0.443E-01  0.443E-01
   6.348  0.133E+00  0.443E-01  0.443E-01  0.443E-01
   6.398  0.132E+00  0.441E-01  0.441E-01  0.441E-01
   6.448  0.134E+00  0.446E-01  0.446E-01  0.446E-01
   6.498  0.136E+00  0.454E-01  0.454E-01  0.454E-01
   6.548  0.137E+00  0.456E-01  0.456E-01  0.456E-01
   6.598  0.137E+00  0.458E-01  0.458E-01  0.458E-01
   6.648  0.137E+00  0.457E-01  0.457E-01  0.457E-01
   6.698  0.138E+00  0.459E-01  0.459E-01  0.459E-01
   6.748  0.139E+00  0.465E-01  0.465E-01  0.465E-01
   6.798  0.141E+00  0.470E-01  0.470E-01  0.470E-01
   6.848  0.142E+00  0.474E-01  0.474E-01  0.474E-01
   6.898  0.143E+00  0.477E-01  0.477E-01  0.477E-01
   6.948  0.147E+00  0.491E-01  0.491E-01  0.491E-01
   6.998  0.148E+00  0.494E-01  0.494E-01  0.494E-01
   7.048  0.149E+00  0.497E-01  0.497E-01  0.497E-01
   7.098  0.151E+00  0.504E-01  0.504E-01  0.504E-01
   7.148  0.153E+00  0.509E-01  0.509E-01  0.509E-01
   7.198  0.154E+00  0.514E-01  0.514E-01  0.514E-01
   7.248  0.157E+00  0.522E-01  0.522E-01  0.522E-01
   7.298  0.159E+00  0.529E-01  0.529E-01  0.529E-01
   7.348  0.185E+00  0.617E-01  0.617E-01  0.617E-01
   7.398  0.188E+00  0.625E-01  0.625E-01  0.625E-01
   7.448  0.184E+00  0.614E-01  0.614E-01  0.614E-01
   7.498  0.179E+00  0.596E-01  0.596E-01  0.596E-01
   7.548  0.176E+00  0.588E-01  0.588E-01  0.588E-01
   7.598  0.189E+00  0.628E-01  0.628E-01  0.628E-01
   7.648  0.203E+00  0.676E-01  0.676E-01  0.676E-01
   7.698  0.189E+00  0.629E-01  0.629E-01  0.629E-01
   7.748  0.177E+00  0.589E-01  0.589E-01  0.589E-01
   7.798  0.165E+00  0.548E-01  0.548E-01  0.548E-01
   7.848  0.140E+00  0.466E-01  0.466E-01  0.466E-01
   7.898  0.133E+00  0.442E-01  0.442E-01  0.442E-01
   7.948  0.138E+00  0.460E-01  0.460E-01  0.460E-01
   7.998  0.129E+00  0.429E-01  0.429E-01  0.429E-01
   8.048  0.129E+00  0.429E-01  0.429E-01  0.429E-01
   8.098  0.130E+00  0.433E-01  0.433E-01  0.433E-01
   8.148  0.121E+00  0.403E-01  0.403E-01  0.403E-01
   8.198  0.111E+00  0.372E-01  0.372E-01  0.372E-01
   8.248  0.112E+00  0.374E-01  0.374E-01  0.374E-01
   8.298  0.114E+00  0.379E-01  0.379E-01  0.379E-01
   8.348  0.120E+00  0.398E-01  0.398E-01  0.398E-01
   8.398  0.136E+00  0.452E-01  0.452E-01  0.452E-01
   8.448  0.142E+00  0.472E-01  0.472E-01  0.472E-01
   8.498  0.138E+00  0.459E-01  0.459E-01  0.459E-01
   8.548  0.132E+00  0.441E-01  0.441E-01  0.441E-01
   8.598  0.113E+00  0.375E-01  0.375E-01  0.375E-01
   8.648  0.133E+00  0.443E-01  0.443E-01  0.443E-01
   8.698  0.143E+00  0.478E-01  0.478E-01  0.478E-01
   8.748  0.138E+00  0.459E-01  0.459E-01  0.459E-01
   8.798  0.123E+00  0.410E-01  0.410E-01  0.410E-01
   8.848  0.130E+00  0.433E-01  0.433E-01  0.433E-01
   8.898  0.125E+00  0.417E-01  0.417E-01  0.417E-01
   8.948  0.131E+00  0.435E-01  0.435E-01  0.435E-01
   8.998  0.171E+00  0.569E-01  0.569E-01  0.569E-01
   9.048  0.189E+00  0.629E-01  0.629E-01  0.629E-01
   9.098  0.190E+00  0.634E-01  0.634E-01  0.634E-01
   9.148  0.194E+00  0.646E-01  0.646E-01  0.646E-01
   9.198  0.207E+00  0.690E-01  0.690E-01  0.690E-01
   9.248  0.210E+00  0.700E-01  0.700E-01  0.700E-01
   9.298  0.195E+00  0.651E-01  0.651E-01  0.651E-01
   9.348  0.194E+00  0.647E-01  0.647E-01  0.647E-01
   9.398  0.228E+00  0.760E-01  0.760E-01  0.760E-01
   9.448  0.235E+00  0.782E-01  0.782E-01  0.782E-01
   9.498  0.199E+00  0.664E-01  0.664E-01  0.664E-01
   9.548  0.240E+00  0.799E-01  0.799E-01  0.799E-01
   9.598  0.193E+00  0.644E-01  0.644E-01  0.644E-01
   9.648  0.189E+00  0.631E-01  0.631E-01  0.631E-01
   9.698  0.109E+00  0.363E-01  0.363E-01  0.363E-01
   9.748  0.130E+00  0.435E-01  0.435E-01  0.435E-01
   9.798  0.136E+00  0.453E-01  0.453E-01  0.453E-01
   9.848  0.122E+00  0.408E-01  0.408E-01  0.408E-01
   9.898  0.108E+00  0.361E-01  0.361E-01  0.361E-01
   9.948  0.102E+00  0.339E-01  0.339E-01  0.339E-01
   9.998  0.985E-01  0.328E-01  0.328E-01  0.328E-01
  10.048  0.955E-01  0.318E-01  0.318E-01  0.318E-01
  10.098  0.101E+00  0.337E-01  0.337E-01  0.337E-01
  10.148  0.867E-01  0.289E-01  0.289E-01  0.289E-01
  10.198  0.852E-01  0.284E-01  0.284E-01  0.284E-01
  10.248  0.906E-01  0.302E-01  0.302E-01  0.302E-01
  10.298  0.812E-01  0.271E-01  0.271E-01  0.271E-01
  10.348  0.724E-01  0.241E-01  0.241E-01  0.241E-01
  10.398  0.746E-01  0.249E-01  0.249E-01  0.249E-01
  10.448  0.670E-01  0.223E-01  0.223E-01  0.223E-01
  10.498  0.572E-01  0.191E-01  0.191E-01  0.191E-01
  10.548  0.564E-01  0.188E-01  0.188E-01  0.188E-01
  10.598  0.632E-01  0.211E-01  0.211E-01  0.211E-01
  10.648  0.573E-01  0.191E-01  0.191E-01  0.191E-01
  10.698  0.484E-01  0.161E-01  0.161E-01  0.161E-01
  10.748  0.498E-01  0.166E-01  0.166E-01  0.166E-01
  10.798  0.283E-01  0.944E-02  0.944E-02  0.944E-02
  10.848  0.337E-01  0.112E-01  0.112E-01  0.112E-01
  10.898  0.553E-01  0.184E-01  0.184E-01  0.184E-01
  10.948  0.563E-01  0.188E-01  0.188E-01  0.188E-01
  10.998  0.472E-01  0.157E-01  0.157E-01  0.157E-01
  11.048  0.540E-01  0.180E-01  0.180E-01  0.180E-01
  11.098  0.608E-01  0.203E-01  0.203E-01  0.203E-01
  11.148  0.661E-01  0.220E-01  0.220E-01  0.220E-01
  11.198  0.697E-01  0.232E-01  0.232E-01  0.232E-01
  11.248  0.722E-01  0.241E-01  0.241E-01  0.241E-01
  11.298  0.780E-01  0.260E-01  0.260E-01  0.260E-01
  11.348  0.839E-01  0.280E-01  0.280E-01  0.280E-01
  11.398  0.901E-01  0.300E-01  0.300E-01  0.300E-01
  11.448  0.991E-01  0.330E-01  0.330E-01  0.330E-01
  11.498  0.108E+00  0.359E-01  0.359E-01  0.359E-01
  11.548  0.114E+00  0.379E-01  0.379E-01  0.379E-01
  11.598  0.116E+00  0.387E-01  0.387E-01  0.387E-01
  11.648  0.117E+00  0.390E-01  0.390E-01  0.390E-01
  11.698  0.115E+00  0.383E-01  0.383E-01  0.383E-01
  11.748  0.119E+00  0.397E-01  0.397E-01  0.397E-01
  11.798  0.126E+00  0.421E-01  0.421E-01  0.421E-01
  11.848  0.134E+00  0.447E-01  0.447E-01  0.447E-01
  11.898  0.139E+00  0.465E-01  0.465E-01  0.465E-01
  11.948  0.146E+00  0.486E-01  0.486E-01  0.486E-01
  11.998  0.150E+00  0.499E-01  0.499E-01  0.499E-01
  12.048  0.152E+00  0.508E-01  0.508E-01  0.508E-01
  12.098  0.153E+00  0.509E-01  0.509E-01  0.509E-01
  12.148  0.154E+00  0.514E-01  0.514E-01  0.514E-01
  12.198  0.143E+00  0.476E-01  0.476E-01  0.476E-01
  12.248  0.136E+00  0.454E-01  0.454E-01  0.454E-01
  12.298  0.126E+00  0.421E-01  0.421E-01  0.421E-01
  12.348  0.126E+00  0.420E-01  0.420E-01  0.420E-01
  12.398  0.126E+00  0.421E-01  0.421E-01  0.421E-01
  12.448  0.126E+00  0.421E-01  0.421E-01  0.421E-01
  12.498  0.128E+00  0.426E-01  0.426E-01  0.426E-01
  12.548  0.131E+00  0.436E-01  0.436E-01  0.436E-01
  12.598  0.134E+00  0.446E-01  0.446E-01  0.446E-01
  12.648  0.137E+00  0.456E-01  0.456E-01  0.456E-01
  12.698  0.141E+00  0.470E-01  0.470E-01  0.470E-01
  12.748  0.144E+00  0.481E-01  0.481E-01  0.481E-01
  12.798  0.145E+00  0.483E-01  0.483E-01  0.483E-01
  12.848  0.141E+00  0.470E-01  0.470E-01  0.470E-01
  12.898  0.139E+00  0.463E-01  0.463E-01  0.463E-01
  12.948  0.140E+00  0.467E-01  0.467E-01  0.467E-01
  12.998  0.147E+00  0.490E-01  0.490E-01  0.490E-01
  13.048  0.148E+00  0.493E-01  0.493E-01  0.493E-01
  13.098  0.141E+00  0.472E-01  0.472E-01  0.472E-01
  13.148  0.139E+00  0.464E-01  0.464E-01  0.464E-01
  13.198  0.138E+00  0.460E-01  0.460E-01  0.460E-01
  13.248  0.137E+00  0.457E-01  0.457E-01  0.457E-01
  13.298  0.139E+00  0.463E-01  0.463E-01  0.463E-01
  13.348  0.140E+00  0.466E-01  0.466E-01  0.466E-01
  13.398  0.140E+00  0.465E-01  0.465E-01  0.465E-01
  13.448  0.140E+00  0.467E-01  0.467E-01  0.467E-01
  13.498  0.142E+00  0.472E-01  0.472E-01  0.472E-01
  13.548  0.146E+00  0.487E-01  0.487E-01  0.487E-01
  13.598  0.151E+00  0.504E-01  0.504E-01  0.504E-01
  13.648  0.154E+00  0.514E-01  0.514E-01  0.514E-01
  13.698  0.153E+00  0.511E-01  0.511E-01  0.511E-01
  13.748  0.153E+00  0.510E-01  0.510E-01  0.510E-01
  13.798  0.153E+00  0.510E-01  0.510E-01  0.510E-01
  13.848  0.154E+00  0.513E-01  0.513E-01  0.513E-01
  13.898  0.156E+00  0.521E-01  0.521E-01  0.521E-01
  13.948  0.159E+00  0.531E-01  0.531E-01  0.531E-01
  13.998  0.163E+00  0.542E-01  0.542E-01  0.542E-01
  14.048  0.166E+00  0.554E-01  0.554E-01  0.554E-01
  14.098  0.169E+00  0.565E-01  0.565E-01  0.565E-01
  14.148  0.168E+00  0.561E-01  0.561E-01  0.561E-01
  14.198  0.162E+00  0.542E-01  0.542E-01  0.542E-01
  14.248  0.159E+00  0.531E-01  0.531E-01  0.531E-01
  14.298  0.157E+00  0.525E-01  0.525E-01  0.525E-01
  14.348  0.155E+00  0.516E-01  0.516E-01  0.516E-01
  14.398  0.153E+00  0.509E-01  0.509E-01  0.509E-01
  14.448  0.151E+00  0.503E-01  0.503E-01  0.503E-01
  14.498  0.149E+00  0.497E-01  0.497E-01  0.497E-01
  14.548  0.147E+00  0.492E-01  0.492E-01  0.492E-01
  14.598  0.145E+00  0.483E-01  0.483E-01  0.483E-01
  14.648  0.145E+00  0.482E-01  0.482E-01  0.482E-01
  14.698  0.144E+00  0.480E-01  0.480E-01  0.480E-01
  14.748  0.143E+00  0.478E-01  0.478E-01  0.478E-01
  14.798  0.143E+00  0.478E-01  0.478E-01  0.478E-01
  14.848  0.143E+00  0.477E-01  0.477E-01  0.477E-01
  14.898  0.142E+00  0.475E-01  0.475E-01  0.475E-01
  14.948  0.143E+00  0.476E-01  0.476E-01  0.476E-01
  14.998  0.143E+00  0.476E-01  0.476E-01  0.476E-01
  15.048  0.142E+00  0.474E-01  0.474E-01  0.474E-01
  15.098  0.142E+00  0.473E-01  0.473E-01  0.473E-01
  15.148  0.141E+00  0.470E-01  0.470E-01  0.470E-01
  15.198  0.140E+00  0.466E-01  0.466E-01  0.466E-01
  15.248  0.140E+00  0.466E-01  0.466E-01  0.466E-01
  15.298  0.139E+00  0.464E-01  0.464E-01  0.464E-01
  15.348  0.138E+00  0.461E-01  0.461E-01  0.461E-01
  15.398  0.137E+00  0.457E-01  0.457E-01  0.457E-01
  15.448  0.136E+00  0.453E-01  0.453E-01  0.453E-01
  15.498  0.128E+00  0.426E-01  0.426E-01  0.426E-01
  15.548  0.126E+00  0.420E-01  0.420E-01  0.420E-01
  15.598  0.124E+00  0.415E-01  0.415E-01  0.415E-01
  15.648  0.123E+00  0.410E-01  0.410E-01  0.410E-01
  15.698  0.121E+00  0.403E-01  0.403E-01  0.403E-01
  15.748  0.119E+00  0.397E-01  0.397E-01  0.397E-01
  15.798  0.117E+00  0.389E-01  0.389E-01  0.389E-01
  15.848  0.114E+00  0.381E-01  0.381E-01  0.381E-01
  15.898  0.112E+00  0.374E-01  0.374E-01  0.374E-01
  15.948  0.111E+00  0.370E-01  0.370E-01  0.370E-01
  15.998  0.110E+00  0.366E-01  0.366E-01  0.366E-01
  16.048  0.109E+00  0.362E-01  0.362E-01  0.362E-01
  16.098  0.108E+00  0.359E-01  0.359E-01  0.359E-01
  16.148  0.106E+00  0.355E-01  0.355E-01  0.355E-01
  16.198  0.106E+00  0.353E-01  0.353E-01  0.353E-01
  16.248  0.107E+00  0.356E-01  0.356E-01  0.356E-01
  16.298  0.110E+00  0.365E-01  0.365E-01  0.365E-01
  16.348  0.111E+00  0.372E-01  0.372E-01  0.372E-01
  16.398  0.112E+00  0.375E-01  0.375E-01  0.375E-01
  16.448  0.115E+00  0.383E-01  0.383E-01  0.383E-01
  16.498  0.120E+00  0.400E-01  0.400E-01  0.400E-01
  16.548  0.123E+00  0.409E-01  0.409E-01  0.409E-01
  16.598  0.123E+00  0.409E-01  0.409E-01  0.409E-01
  16.648  0.121E+00  0.405E-01  0.405E-01  0.405E-01
  16.698  0.121E+00  0.404E-01  0.404E-01  0.404E-01
  16.748  0.121E+00  0.405E-01  0.405E-01  0.405E-01
  16.798  0.123E+00  0.410E-01  0.410E-01  0.410E-01
  16.848  0.126E+00  0.422E-01  0.422E-01  0.422E-01
  16.898  0.126E+00  0.421E-01  0.421E-01  0.421E-01
  16.948  0.118E+00  0.394E-01  0.394E-01  0.394E-01
  16.998  0.115E+00  0.383E-01  0.383E-01  0.383E-01
  17.048  0.114E+00  0.379E-01  0.379E-01  0.379E-01
  17.098  0.111E+00  0.369E-01  0.369E-01  0.369E-01
  17.148  0.107E+00  0.356E-01  0.356E-01  0.356E-01
  17.198  0.104E+00  0.346E-01  0.346E-01  0.346E-01
  17.248  0.104E+00  0.346E-01  0.346E-01  0.346E-01
  17.298  0.109E+00  0.363E-01  0.363E-01  0.363E-01
  17.348  0.115E+00  0.382E-01  0.382E-01  0.382E-01
  17.398  0.120E+00  0.400E-01  0.400E-01  0.400E-01
  17.448  0.124E+00  0.412E-01  0.412E-01  0.412E-01
  17.498  0.128E+00  0.428E-01  0.428E-01  0.428E-01
  17.548  0.132E+00  0.440E-01  0.440E-01  0.440E-01
  17.598  0.134E+00  0.447E-01  0.447E-01  0.447E-01
  17.648  0.141E+00  0.470E-01  0.470E-01  0.470E-01
  17.698  0.152E+00  0.508E-01  0.508E-01  0.508E-01
  17.748  0.144E+00  0.478E-01  0.478E-01  0.478E-01
  17.798  0.137E+00  0.455E-01  0.455E-01  0.455E-01
  17.848  0.139E+00  0.463E-01  0.463E-01  0.463E-01
  17.898  0.141E+00  0.470E-01  0.470E-01  0.470E-01
  17.948  0.143E+00  0.477E-01  0.477E-01  0.477E-01
  17.998  0.142E+00  0.472E-01  0.472E-01  0.472E-01
  18.048  0.142E+00  0.472E-01  0.472E-01  0.472E-01
  18.098  0.141E+00  0.471E-01  0.471E-01  0.471E-01
  18.148  0.141E+00  0.470E-01  0.470E-01  0.470E-01
  18.198  0.141E+00  0.471E-01  0.471E-01  0.471E-01
  18.248  0.141E+00  0.470E-01  0.470E-01  0.470E-01
  18.298  0.140E+00  0.466E-01  0.466E-01  0.466E-01
  18.348  0.138E+00  0.460E-01  0.460E-01  0.460E-01
  18.398  0.138E+00  0.460E-01  0.460E-01  0.460E-01
  18.448  0.138E+00  0.460E-01  0.460E-01  0.460E-01
  18.498  0.138E+00  0.459E-01  0.459E-01  0.459E-01
  18.548  0.138E+00  0.459E-01  0.459E-01  0.459E-01
  18.598  0.138E+00  0.460E-01  0.460E-01  0.460E-01
  18.648  0.141E+00  0.470E-01  0.470E-01  0.470E-01
  18.698  0.152E+00  0.505E-01  0.505E-01  0.505E-01
  18.748  0.150E+00  0.499E-01  0.499E-01  0.499E-01
  18.798  0.143E+00  0.475E-01  0.475E-01  0.475E-01
  18.848  0.135E+00  0.448E-01  0.448E-01  0.448E-01
  18.898  0.130E+00  0.432E-01  0.432E-01  0.432E-01
  18.948  0.126E+00  0.421E-01  0.421E-01  0.421E-01
  18.998  0.124E+00  0.412E-01  0.412E-01  0.412E-01
  19.048  0.122E+00  0.405E-01  0.405E-01  0.405E-01
  19.098  0.120E+00  0.401E-01  0.401E-01  0.401E-01
  19.148  0.120E+00  0.399E-01  0.399E-01  0.399E-01
  19.198  0.120E+00  0.398E-01  0.398E-01  0.398E-01
  19.248  0.119E+00  0.397E-01  0.397E-01  0.397E-01
  19.298  0.119E+00  0.396E-01  0.396E-01  0.396E-01
  19.348  0.118E+00  0.395E-01  0.395E-01  0.395E-01
  19.398  0.118E+00  0.394E-01  0.394E-01  0.394E-01
  19.448  0.118E+00  0.394E-01  0.394E-01  0.394E-01
  19.498  0.120E+00  0.399E-01  0.399E-01  0.399E-01
  19.548  0.123E+00  0.409E-01  0.409E-01  0.409E-01
  19.598  0.123E+00  0.409E-01  0.409E-01  0.409E-01
  19.648  0.126E+00  0.419E-01  0.419E-01  0.419E-01
  19.698  0.131E+00  0.437E-01  0.437E-01  0.437E-01
  19.748  0.132E+00  0.439E-01  0.439E-01  0.439E-01
  19.798  0.131E+00  0.436E-01  0.436E-01  0.436E-01
  19.848  0.134E+00  0.446E-01  0.446E-01  0.446E-01
  19.898  0.144E+00  0.481E-01  0.481E-01  0.481E-01
  19.948  0.150E+00  0.500E-01  0.500E-01  0.500E-01
  19.998  0.152E+00  0.505E-01  0.505E-01  0.505E-01
  20.048  0.148E+00  0.493E-01  0.493E-01  0.493E-01
  20.098  0.138E+00  0.461E-01  0.461E-01  0.461E-01
  20.148  0.133E+00  0.445E-01  0.445E-01  0.445E-01
  20.198  0.130E+00  0.434E-01  0.434E-01  0.434E-01
  20.248  0.131E+00  0.436E-01  0.436E-01  0.436E-01
  20.298  0.130E+00  0.435E-01  0.435E-01  0.435E-01
  20.348  0.126E+00  0.420E-01  0.420E-01  0.420E-01
  20.398  0.122E+00  0.407E-01  0.407E-01  0.407E-01
  20.448  0.119E+00  0.396E-01  0.396E-01  0.396E-01
  20.498  0.115E+00  0.382E-01  0.382E-01  0.382E-01
  20.548  0.110E+00  0.368E-01  0.368E-01  0.368E-01
  20.598  0.995E-01  0.332E-01  0.332E-01  0.332E-01
  20.648  0.933E-01  0.311E-01  0.311E-01  0.311E-01
  20.698  0.890E-01  0.297E-01  0.297E-01  0.297E-01
  20.748  0.854E-01  0.285E-01  0.285E-01  0.285E-01
  20.798  0.825E-01  0.275E-01  0.275E-01  0.275E-01
  20.848  0.802E-01  0.267E-01  0.267E-01  0.267E-01
  20.898  0.774E-01  0.258E-01  0.258E-01  0.258E-01
  20.948  0.726E-01  0.242E-01  0.242E-01  0.242E-01
  20.998  0.662E-01  0.221E-01  0.221E-01  0.221E-01
  21.048  0.596E-01  0.199E-01  0.199E-01  0.199E-01
  21.098  0.540E-01  0.180E-01  0.180E-01  0.180E-01
  21.148  0.440E-01  0.147E-01  0.147E-01  0.147E-01
  21.198  0.389E-01  0.130E-01  0.130E-01  0.130E-01
  21.248  0.336E-01  0.112E-01  0.112E-01  0.112E-01
  21.298  0.277E-01  0.925E-02  0.925E-02  0.925E-02
  21.348  0.223E-01  0.744E-02  0.744E-02  0.744E-02
  21.398  0.178E-01  0.594E-02  0.594E-02  0.594E-02
  21.448  0.145E-01  0.482E-02  0.482E-02  0.482E-02
  21.498  0.122E-01  0.407E-02  0.407E-02  0.407E-02
  21.548  0.103E-01  0.343E-02  0.343E-02  0.343E-02
  21.598  0.858E-02  0.286E-02  0.286E-02  0.286E-02
  21.648  0.699E-02  0.233E-02  0.233E-02  0.233E-02
  21.698  0.568E-02  0.189E-02  0.189E-02  0.189E-02
  21.748  0.462E-02  0.154E-02  0.154E-02  0.154E-02
  21.798  0.374E-02  0.125E-02  0.125E-02  0.125E-02
  21.848  0.299E-02  0.996E-03  0.996E-03  0.996E-03
  21.898  0.235E-02  0.783E-03  0.783E-03  0.783E-03
  21.948  0.180E-02  0.601E-03  0.601E-03  0.601E-03
  21.998  0.133E-02  0.444E-03  0.444E-03  0.444E-03
  22.048  0.937E-03  0.312E-03  0.312E-03  0.312E-03
  22.098  0.608E-03  0.203E-03  0.203E-03  0.203E-03
