# E (eV)   ldos(E)   pdos(E)    pdos(E)    pdos(E)    pdos(E)    pdos(E)   
   3.148 -0.243E-06 -0.285E-07 -0.618E-07 -0.618E-07 -0.285E-07 -0.618E-07
   3.198 -0.114E-05 -0.197E-07 -0.366E-06 -0.366E-06 -0.197E-07 -0.366E-06
   3.248 -0.101E-05  0.106E-06 -0.409E-06 -0.409E-06  0.106E-06 -0.409E-06
   3.298  0.453E-06  0.435E-06 -0.139E-06 -0.139E-06  0.435E-06 -0.139E-06
   3.348  0.300E-05  0.121E-05  0.193E-06  0.193E-06  0.121E-05  0.193E-06
   3.398  0.735E-05  0.239E-05  0.856E-06  0.856E-06  0.239E-05  0.856E-06
   3.448  0.141E-04  0.399E-05  0.202E-05  0.202E-05  0.399E-05  0.202E-05
   3.498  0.224E-04  0.561E-05  0.373E-05  0.373E-05  0.561E-05  0.373E-05
   3.548  0.314E-04  0.709E-05  0.575E-05  0.576E-05  0.709E-05  0.575E-05
   3.598  0.426E-04  0.915E-05  0.809E-05  0.809E-05  0.915E-05  0.809E-05
   3.648  0.569E-04  0.119E-04  0.110E-04  0.110E-04  0.119E-04  0.110E-04
   3.698  0.747E-04  0.153E-04  0.147E-04  0.147E-04  0.153E-04  0.147E-04
   3.748  0.964E-04  0.194E-04  0.192E-04  0.192E-04  0.194E-04  0.192E-04
   3.798  0.122E-03  0.241E-04  0.246E-04  0.246E-04  0.241E-04  0.246E-04
   3.848  0.151E-03  0.294E-04  0.306E-04  0.306E-04  0.294E-04  0.306E-04
   3.898  0.182E-03  0.349E-04  0.374E-04  0.374E-04  0.349E-04  0.374E-04
   3.948  0.215E-03  0.399E-04  0.452E-04  0.452E-04  0.399E-04  0.452E-04
   3.998  0.253E-03  0.456E-04  0.540E-04  0.540E-04  0.456E-04  0.540E-04
   4.048  0.297E-03  0.527E-04  0.639E-04  0.639E-04  0.527E-04  0.639E-04
   4.098  0.347E-03  0.607E-04  0.753E-04  0.753E-04  0.607E-04  0.753E-04
   4.148  0.404E-03  0.698E-04  0.882E-04  0.882E-04  0.698E-04  0.882E-04
   4.198  0.466E-03  0.798E-04  0.102E-03  0.102E-03  0.798E-04  0.102E-03
   4.248  0.533E-03  0.909E-04  0.117E-03  0.117E-03  0.909E-04  0.117E-03
   4.298  0.607E-03  0.104E-03  0.133E-03  0.133E-03  0.104E-03  0.133E-03
   4.348  0.691E-03  0.118E-03  0.152E-03  0.152E-03  0.118E-03  0.152E-03
   4.398  0.785E-03  0.134E-03  0.173E-03  0.173E-03  0.134E-03  0.173E-03
   4.448  0.887E-03  0.149E-03  0.196E-03  0.196E-03  0.150E-03  0.196E-03
   4.498  0.991E-03  0.162E-03  0.221E-03  0.222E-03  0.165E-03  0.221E-03
   4.548  0.110E-02  0.175E-03  0.248E-03  0.250E-03  0.181E-03  0.248E-03
   4.598  0.122E-02  0.190E-03  0.277E-03  0.281E-03  0.199E-03  0.277E-03
   4.648  0.136E-02  0.206E-03  0.308E-03  0.315E-03  0.220E-03  0.308E-03
   4.698  0.150E-02  0.223E-03  0.342E-03  0.352E-03  0.243E-03  0.342E-03
   4.748  0.166E-02  0.243E-03  0.380E-03  0.393E-03  0.268E-03  0.380E-03
   4.798  0.184E-02  0.264E-03  0.420E-03  0.437E-03  0.296E-03  0.420E-03
   4.848  0.203E-02  0.288E-03  0.463E-03  0.486E-03  0.326E-03  0.463E-03
   4.898  0.223E-02  0.316E-03  0.510E-03  0.538E-03  0.360E-03  0.510E-03
   4.948  0.246E-02  0.347E-03  0.562E-03  0.596E-03  0.398E-03  0.562E-03
   4.998  0.272E-02  0.383E-03  0.618E-03  0.659E-03  0.438E-03  0.618E-03
   5.048  0.299E-02  0.422E-03  0.680E-03  0.727E-03  0.482E-03  0.680E-03
   5.098  0.329E-02  0.466E-03  0.747E-03  0.800E-03  0.529E-03  0.747E-03
   5.148  0.356E-02  0.497E-03  0.816E-03  0.875E-03  0.561E-03  0.816E-03
   5.198  0.385E-02  0.531E-03  0.889E-03  0.953E-03  0.591E-03  0.889E-03
   5.248  0.420E-02  0.586E-03  0.970E-03  0.104E-02  0.636E-03  0.970E-03
   5.298  0.457E-02  0.652E-03  0.106E-02  0.112E-02  0.686E-03  0.106E-02
   5.348  0.500E-02  0.734E-03  0.115E-02  0.122E-02  0.746E-03  0.115E-02
   5.398  0.545E-02  0.831E-03  0.125E-02  0.131E-02  0.813E-03  0.125E-02
   5.448  0.595E-02  0.942E-03  0.136E-02  0.141E-02  0.886E-03  0.136E-02
   5.498  0.649E-02  0.107E-02  0.147E-02  0.151E-02  0.967E-03  0.147E-02
   5.548  0.711E-02  0.122E-02  0.160E-02  0.162E-02  0.106E-02  0.160E-02
   5.598  0.779E-02  0.139E-02  0.175E-02  0.174E-02  0.117E-02  0.175E-02
   5.648  0.852E-02  0.157E-02  0.190E-02  0.186E-02  0.129E-02  0.190E-02
   5.698  0.931E-02  0.179E-02  0.206E-02  0.199E-02  0.142E-02  0.206E-02
   5.748  0.102E-01  0.204E-02  0.223E-02  0.212E-02  0.157E-02  0.223E-02
   5.798  0.112E-01  0.233E-02  0.242E-02  0.225E-02  0.174E-02  0.242E-02
   5.848  0.122E-01  0.265E-02  0.262E-02  0.238E-02  0.194E-02  0.262E-02
   5.898  0.136E-01  0.306E-02  0.285E-02  0.254E-02  0.232E-02  0.285E-02
   5.948  0.151E-01  0.340E-02  0.312E-02  0.272E-02  0.272E-02  0.312E-02
   5.998  0.161E-01  0.346E-02  0.341E-02  0.291E-02  0.291E-02  0.341E-02
   6.048  0.173E-01  0.357E-02  0.374E-02  0.313E-02  0.313E-02  0.374E-02
   6.098  0.187E-01  0.373E-02  0.410E-02  0.339E-02  0.340E-02  0.410E-02
   6.148  0.203E-01  0.393E-02  0.448E-02  0.367E-02  0.371E-02  0.448E-02
   6.198  0.219E-01  0.414E-02  0.490E-02  0.396E-02  0.399E-02  0.490E-02
   6.248  0.235E-01  0.434E-02  0.535E-02  0.426E-02  0.426E-02  0.535E-02
   6.298  0.253E-01  0.456E-02  0.582E-02  0.459E-02  0.455E-02  0.582E-02
   6.348  0.274E-01  0.482E-02  0.636E-02  0.500E-02  0.487E-02  0.636E-02
   6.398  0.296E-01  0.508E-02  0.692E-02  0.545E-02  0.519E-02  0.692E-02
   6.448  0.323E-01  0.542E-02  0.761E-02  0.603E-02  0.558E-02  0.761E-02
   6.498  0.352E-01  0.584E-02  0.837E-02  0.665E-02  0.601E-02  0.837E-02
   6.548  0.382E-01  0.621E-02  0.912E-02  0.732E-02  0.640E-02  0.912E-02
   6.598  0.416E-01  0.659E-02  0.100E-01  0.819E-02  0.681E-02  0.100E-01
   6.648  0.450E-01  0.689E-02  0.109E-01  0.915E-02  0.714E-02  0.109E-01
   6.698  0.492E-01  0.746E-02  0.119E-01  0.103E-01  0.774E-02  0.119E-01
   6.748  0.543E-01  0.819E-02  0.129E-01  0.117E-01  0.851E-02  0.129E-01
   6.798  0.603E-01  0.899E-02  0.142E-01  0.136E-01  0.935E-02  0.142E-01
   6.848  0.670E-01  0.991E-02  0.155E-01  0.159E-01  0.103E-01  0.155E-01
   6.898  0.743E-01  0.109E-01  0.167E-01  0.184E-01  0.114E-01  0.167E-01
   6.948  0.831E-01  0.122E-01  0.185E-01  0.213E-01  0.127E-01  0.185E-01
   6.998  0.929E-01  0.134E-01  0.204E-01  0.246E-01  0.139E-01  0.204E-01
   7.048  0.104E+00  0.149E-01  0.228E-01  0.283E-01  0.154E-01  0.228E-01
   7.098  0.118E+00  0.166E-01  0.257E-01  0.326E-01  0.171E-01  0.257E-01
   7.148  0.132E+00  0.185E-01  0.288E-01  0.370E-01  0.190E-01  0.288E-01
   7.198  0.149E+00  0.206E-01  0.326E-01  0.423E-01  0.209E-01  0.326E-01
   7.248  0.171E+00  0.234E-01  0.373E-01  0.491E-01  0.235E-01  0.373E-01
   7.298  0.196E+00  0.270E-01  0.424E-01  0.573E-01  0.268E-01  0.424E-01
   7.348  0.249E+00  0.322E-01  0.591E-01  0.668E-01  0.315E-01  0.591E-01
   7.398  0.319E+00  0.378E-01  0.824E-01  0.795E-01  0.367E-01  0.824E-01
   7.448  0.471E+00  0.438E-01  0.114E+00  0.157E+00  0.425E-01  0.114E+00
   7.498  0.414E+00  0.512E-01  0.109E+00  0.961E-01  0.494E-01  0.109E+00
   7.548  0.440E+00  0.635E-01  0.109E+00  0.981E-01  0.613E-01  0.109E+00
   7.598  0.504E+00  0.850E-01  0.119E+00  0.100E+00  0.818E-01  0.119E+00
   7.648  0.718E+00  0.180E+00  0.126E+00  0.995E-01  0.187E+00  0.126E+00
   7.698  0.826E+00  0.232E+00  0.125E+00  0.987E-01  0.247E+00  0.125E+00
   7.748  0.836E+00  0.232E+00  0.126E+00  0.113E+00  0.239E+00  0.126E+00
   7.798  0.934E+00  0.267E+00  0.127E+00  0.129E+00  0.283E+00  0.127E+00
   7.848  0.910E+00  0.247E+00  0.129E+00  0.147E+00  0.257E+00  0.129E+00
   7.898  0.961E+00  0.257E+00  0.140E+00  0.160E+00  0.263E+00  0.140E+00
   7.948  0.989E+00  0.284E+00  0.139E+00  0.149E+00  0.278E+00  0.139E+00
   7.998  0.978E+00  0.277E+00  0.143E+00  0.150E+00  0.265E+00  0.143E+00
   8.048  0.103E+01  0.288E+00  0.152E+00  0.158E+00  0.283E+00  0.152E+00
   8.098  0.109E+01  0.290E+00  0.177E+00  0.172E+00  0.277E+00  0.177E+00
   8.148  0.142E+01  0.293E+00  0.282E+00  0.276E+00  0.286E+00  0.282E+00
   8.198  0.159E+01  0.283E+00  0.347E+00  0.338E+00  0.280E+00  0.347E+00
   8.248  0.175E+01  0.297E+00  0.388E+00  0.380E+00  0.295E+00  0.388E+00
   8.298  0.190E+01  0.297E+00  0.436E+00  0.433E+00  0.298E+00  0.436E+00
   8.348  0.206E+01  0.321E+00  0.474E+00  0.474E+00  0.321E+00  0.474E+00
   8.398  0.229E+01  0.391E+00  0.501E+00  0.502E+00  0.392E+00  0.501E+00
   8.448  0.234E+01  0.349E+00  0.545E+00  0.546E+00  0.350E+00  0.545E+00
   8.498  0.219E+01  0.311E+00  0.522E+00  0.520E+00  0.314E+00  0.522E+00
   8.548  0.197E+01  0.246E+00  0.496E+00  0.491E+00  0.241E+00  0.496E+00
   8.598  0.166E+01  0.181E+00  0.430E+00  0.435E+00  0.181E+00  0.430E+00
   8.648  0.190E+01  0.288E+00  0.441E+00  0.436E+00  0.290E+00  0.441E+00
   8.698  0.215E+01  0.360E+00  0.479E+00  0.468E+00  0.366E+00  0.479E+00
   8.748  0.225E+01  0.380E+00  0.504E+00  0.484E+00  0.378E+00  0.504E+00
   8.798  0.189E+01  0.359E+00  0.399E+00  0.370E+00  0.360E+00  0.399E+00
   8.848  0.192E+01  0.357E+00  0.426E+00  0.358E+00  0.354E+00  0.426E+00
   8.898  0.182E+01  0.343E+00  0.369E+00  0.395E+00  0.341E+00  0.369E+00
   8.948  0.192E+01  0.309E+00  0.413E+00  0.470E+00  0.312E+00  0.413E+00
   8.998  0.248E+01  0.317E+00  0.600E+00  0.641E+00  0.320E+00  0.600E+00
   9.048  0.267E+01  0.360E+00  0.641E+00  0.668E+00  0.361E+00  0.641E+00
   9.098  0.275E+01  0.366E+00  0.688E+00  0.660E+00  0.346E+00  0.688E+00
   9.148  0.286E+01  0.379E+00  0.730E+00  0.676E+00  0.348E+00  0.730E+00
   9.198  0.296E+01  0.352E+00  0.754E+00  0.740E+00  0.355E+00  0.754E+00
   9.248  0.296E+01  0.373E+00  0.734E+00  0.739E+00  0.377E+00  0.734E+00
   9.298  0.298E+01  0.439E+00  0.703E+00  0.689E+00  0.443E+00  0.703E+00
   9.348  0.302E+01  0.473E+00  0.691E+00  0.691E+00  0.471E+00  0.691E+00
   9.398  0.354E+01  0.558E+00  0.805E+00  0.820E+00  0.553E+00  0.805E+00
   9.448  0.394E+01  0.658E+00  0.877E+00  0.858E+00  0.670E+00  0.877E+00
   9.498  0.340E+01  0.604E+00  0.723E+00  0.733E+00  0.620E+00  0.723E+00
   9.548  0.422E+01  0.730E+00  0.916E+00  0.923E+00  0.738E+00  0.916E+00
   9.598  0.433E+01  0.742E+00  0.944E+00  0.955E+00  0.744E+00  0.944E+00
   9.648  0.518E+01  0.716E+00  0.124E+01  0.125E+01  0.724E+00  0.124E+01
   9.698  0.264E+01  0.511E+00  0.539E+00  0.544E+00  0.506E+00  0.539E+00
   9.748  0.307E+01  0.612E+00  0.618E+00  0.615E+00  0.611E+00  0.618E+00
   9.798  0.315E+01  0.624E+00  0.633E+00  0.628E+00  0.629E+00  0.633E+00
   9.848  0.267E+01  0.549E+00  0.524E+00  0.522E+00  0.551E+00  0.524E+00
   9.898  0.246E+01  0.544E+00  0.457E+00  0.460E+00  0.540E+00  0.457E+00
   9.948  0.258E+01  0.637E+00  0.432E+00  0.444E+00  0.630E+00  0.432E+00
   9.998  0.260E+01  0.719E+00  0.376E+00  0.398E+00  0.727E+00  0.376E+00
  10.048  0.283E+01  0.808E+00  0.397E+00  0.410E+00  0.815E+00  0.397E+00
  10.098  0.351E+01  0.110E+01  0.439E+00  0.427E+00  0.110E+01  0.439E+00
  10.148  0.332E+01  0.110E+01  0.391E+00  0.349E+00  0.109E+01  0.391E+00
  10.198  0.309E+01  0.111E+01  0.288E+00  0.308E+00  0.109E+01  0.288E+00
  10.248  0.379E+01  0.138E+01  0.346E+00  0.340E+00  0.137E+01  0.346E+00
  10.298  0.372E+01  0.128E+01  0.387E+00  0.389E+00  0.128E+01  0.387E+00
  10.348  0.385E+01  0.130E+01  0.409E+00  0.419E+00  0.132E+01  0.409E+00
  10.398  0.341E+01  0.109E+01  0.413E+00  0.393E+00  0.110E+01  0.413E+00
  10.448  0.285E+01  0.848E+00  0.389E+00  0.372E+00  0.852E+00  0.389E+00
  10.498  0.303E+01  0.878E+00  0.432E+00  0.421E+00  0.869E+00  0.432E+00
  10.548  0.324E+01  0.831E+00  0.523E+00  0.517E+00  0.842E+00  0.523E+00
  10.598  0.342E+01  0.915E+00  0.531E+00  0.531E+00  0.913E+00  0.531E+00
  10.648  0.335E+01  0.825E+00  0.567E+00  0.567E+00  0.821E+00  0.567E+00
  10.698  0.372E+01  0.827E+00  0.693E+00  0.681E+00  0.830E+00  0.693E+00
  10.748  0.486E+01  0.990E+00  0.960E+00  0.970E+00  0.976E+00  0.960E+00
  10.798  0.523E+01  0.881E+00  0.115E+01  0.116E+01  0.880E+00  0.115E+01
  10.848  0.679E+01  0.104E+01  0.156E+01  0.156E+01  0.107E+01  0.156E+01
  10.898  0.454E+01  0.472E+00  0.119E+01  0.120E+01  0.473E+00  0.119E+01
  10.948  0.280E+01  0.156E+00  0.809E+00  0.858E+00  0.164E+00  0.809E+00
  10.998  0.166E+01  0.876E-01  0.502E+00  0.479E+00  0.893E-01  0.502E+00
  11.048  0.421E+00  0.847E-01  0.786E-01  0.932E-01  0.861E-01  0.786E-01
  11.098  0.401E+00  0.813E-01  0.759E-01  0.852E-01  0.825E-01  0.759E-01
  11.148  0.376E+00  0.764E-01  0.720E-01  0.781E-01  0.777E-01  0.720E-01
  11.198  0.352E+00  0.714E-01  0.680E-01  0.717E-01  0.724E-01  0.680E-01
  11.248  0.322E+00  0.644E-01  0.627E-01  0.669E-01  0.648E-01  0.627E-01
  11.298  0.305E+00  0.604E-01  0.599E-01  0.639E-01  0.603E-01  0.599E-01
  11.348  0.289E+00  0.579E-01  0.575E-01  0.588E-01  0.575E-01  0.575E-01
  11.398  0.278E+00  0.559E-01  0.559E-01  0.553E-01  0.551E-01  0.559E-01
  11.448  0.268E+00  0.542E-01  0.545E-01  0.517E-01  0.531E-01  0.545E-01
  11.498  0.259E+00  0.526E-01  0.534E-01  0.484E-01  0.513E-01  0.534E-01
  11.548  0.251E+00  0.512E-01  0.525E-01  0.450E-01  0.497E-01  0.525E-01
  11.598  0.243E+00  0.499E-01  0.516E-01  0.416E-01  0.481E-01  0.516E-01
  11.648  0.238E+00  0.494E-01  0.515E-01  0.384E-01  0.477E-01  0.515E-01
  11.698  0.223E+00  0.462E-01  0.491E-01  0.347E-01  0.439E-01  0.491E-01
  11.748  0.216E+00  0.449E-01  0.486E-01  0.318E-01  0.418E-01  0.486E-01
  11.798  0.218E+00  0.451E-01  0.499E-01  0.314E-01  0.412E-01  0.499E-01
  11.848  0.217E+00  0.450E-01  0.508E-01  0.305E-01  0.402E-01  0.508E-01
  11.898  0.211E+00  0.437E-01  0.504E-01  0.284E-01  0.381E-01  0.504E-01
  11.948  0.207E+00  0.428E-01  0.504E-01  0.273E-01  0.366E-01  0.504E-01
  11.998  0.201E+00  0.414E-01  0.496E-01  0.261E-01  0.346E-01  0.496E-01
  12.048  0.195E+00  0.397E-01  0.485E-01  0.255E-01  0.327E-01  0.485E-01
  12.098  0.188E+00  0.377E-01  0.465E-01  0.268E-01  0.310E-01  0.465E-01
  12.148  0.184E+00  0.355E-01  0.435E-01  0.315E-01  0.302E-01  0.435E-01
  12.198  0.163E+00  0.299E-01  0.353E-01  0.346E-01  0.282E-01  0.353E-01
  12.248  0.151E+00  0.270E-01  0.311E-01  0.345E-01  0.272E-01  0.311E-01
  12.298  0.140E+00  0.246E-01  0.276E-01  0.340E-01  0.265E-01  0.276E-01
  12.348  0.137E+00  0.238E-01  0.263E-01  0.342E-01  0.264E-01  0.263E-01
  12.398  0.133E+00  0.230E-01  0.250E-01  0.341E-01  0.261E-01  0.250E-01
  12.448  0.129E+00  0.223E-01  0.238E-01  0.339E-01  0.257E-01  0.238E-01
  12.498  0.127E+00  0.218E-01  0.229E-01  0.337E-01  0.253E-01  0.229E-01
  12.548  0.125E+00  0.216E-01  0.227E-01  0.336E-01  0.249E-01  0.227E-01
  12.598  0.125E+00  0.215E-01  0.225E-01  0.335E-01  0.245E-01  0.225E-01
  12.648  0.124E+00  0.215E-01  0.225E-01  0.334E-01  0.242E-01  0.225E-01
  12.698  0.124E+00  0.216E-01  0.226E-01  0.332E-01  0.240E-01  0.226E-01
  12.748  0.123E+00  0.214E-01  0.225E-01  0.326E-01  0.235E-01  0.225E-01
  12.798  0.119E+00  0.209E-01  0.220E-01  0.307E-01  0.229E-01  0.220E-01
  12.848  0.109E+00  0.196E-01  0.203E-01  0.269E-01  0.219E-01  0.203E-01
  12.898  0.102E+00  0.186E-01  0.191E-01  0.247E-01  0.210E-01  0.191E-01
  12.948  0.991E-01  0.181E-01  0.185E-01  0.236E-01  0.204E-01  0.185E-01
  12.998  0.993E-01  0.183E-01  0.187E-01  0.233E-01  0.203E-01  0.187E-01
  13.048  0.971E-01  0.179E-01  0.185E-01  0.225E-01  0.196E-01  0.185E-01
  13.098  0.930E-01  0.170E-01  0.179E-01  0.213E-01  0.189E-01  0.179E-01
  13.148  0.891E-01  0.163E-01  0.173E-01  0.204E-01  0.178E-01  0.173E-01
  13.198  0.859E-01  0.157E-01  0.167E-01  0.197E-01  0.170E-01  0.167E-01
  13.248  0.831E-01  0.152E-01  0.163E-01  0.189E-01  0.164E-01  0.163E-01
  13.298  0.819E-01  0.150E-01  0.161E-01  0.185E-01  0.161E-01  0.161E-01
  13.348  0.802E-01  0.147E-01  0.159E-01  0.180E-01  0.157E-01  0.159E-01
  13.398  0.778E-01  0.142E-01  0.156E-01  0.174E-01  0.151E-01  0.156E-01
  13.448  0.760E-01  0.138E-01  0.153E-01  0.170E-01  0.146E-01  0.153E-01
  13.498  0.745E-01  0.135E-01  0.151E-01  0.166E-01  0.142E-01  0.151E-01
  13.548  0.731E-01  0.133E-01  0.149E-01  0.162E-01  0.139E-01  0.149E-01
  13.598  0.719E-01  0.130E-01  0.147E-01  0.159E-01  0.135E-01  0.147E-01
  13.648  0.709E-01  0.128E-01  0.146E-01  0.156E-01  0.133E-01  0.146E-01
  13.698  0.684E-01  0.124E-01  0.141E-01  0.150E-01  0.127E-01  0.141E-01
  13.748  0.666E-01  0.120E-01  0.138E-01  0.146E-01  0.123E-01  0.138E-01
  13.798  0.657E-01  0.118E-01  0.137E-01  0.145E-01  0.121E-01  0.137E-01
  13.848  0.648E-01  0.116E-01  0.135E-01  0.143E-01  0.119E-01  0.135E-01
  13.898  0.636E-01  0.113E-01  0.133E-01  0.140E-01  0.117E-01  0.133E-01
  13.948  0.626E-01  0.111E-01  0.131E-01  0.138E-01  0.115E-01  0.131E-01
  13.998  0.616E-01  0.109E-01  0.129E-01  0.135E-01  0.113E-01  0.129E-01
  14.048  0.606E-01  0.106E-01  0.128E-01  0.133E-01  0.111E-01  0.128E-01
  14.098  0.599E-01  0.105E-01  0.127E-01  0.131E-01  0.109E-01  0.127E-01
  14.148  0.585E-01  0.101E-01  0.125E-01  0.129E-01  0.105E-01  0.125E-01
  14.198  0.559E-01  0.950E-02  0.120E-01  0.124E-01  0.994E-02  0.120E-01
  14.248  0.540E-01  0.911E-02  0.117E-01  0.120E-01  0.957E-02  0.117E-01
  14.298  0.526E-01  0.880E-02  0.114E-01  0.117E-01  0.925E-02  0.114E-01
  14.348  0.510E-01  0.847E-02  0.111E-01  0.114E-01  0.892E-02  0.111E-01
  14.398  0.496E-01  0.818E-02  0.108E-01  0.111E-01  0.863E-02  0.108E-01
  14.448  0.482E-01  0.789E-02  0.106E-01  0.108E-01  0.832E-02  0.106E-01
  14.498  0.468E-01  0.760E-02  0.103E-01  0.106E-01  0.801E-02  0.103E-01
  14.548  0.455E-01  0.732E-02  0.101E-01  0.103E-01  0.771E-02  0.101E-01
  14.598  0.437E-01  0.698E-02  0.972E-02  0.991E-02  0.733E-02  0.972E-02
  14.648  0.429E-01  0.681E-02  0.959E-02  0.975E-02  0.712E-02  0.959E-02
  14.698  0.419E-01  0.661E-02  0.943E-02  0.956E-02  0.688E-02  0.943E-02
  14.748  0.410E-01  0.642E-02  0.927E-02  0.936E-02  0.665E-02  0.927E-02
  14.798  0.401E-01  0.624E-02  0.913E-02  0.918E-02  0.644E-02  0.913E-02
  14.848  0.392E-01  0.605E-02  0.897E-02  0.900E-02  0.620E-02  0.897E-02
  14.898  0.383E-01  0.587E-02  0.881E-02  0.881E-02  0.598E-02  0.881E-02
  14.948  0.376E-01  0.573E-02  0.871E-02  0.870E-02  0.579E-02  0.871E-02
  14.998  0.370E-01  0.561E-02  0.861E-02  0.858E-02  0.563E-02  0.861E-02
  15.048  0.362E-01  0.545E-02  0.846E-02  0.839E-02  0.544E-02  0.846E-02
  15.098  0.355E-01  0.530E-02  0.833E-02  0.824E-02  0.528E-02  0.833E-02
  15.148  0.346E-01  0.514E-02  0.815E-02  0.803E-02  0.511E-02  0.815E-02
  15.198  0.337E-01  0.498E-02  0.798E-02  0.783E-02  0.494E-02  0.798E-02
  15.248  0.331E-01  0.488E-02  0.785E-02  0.768E-02  0.483E-02  0.785E-02
  15.298  0.324E-01  0.477E-02  0.771E-02  0.752E-02  0.471E-02  0.771E-02
  15.348  0.317E-01  0.463E-02  0.756E-02  0.736E-02  0.457E-02  0.756E-02
  15.398  0.309E-01  0.448E-02  0.740E-02  0.720E-02  0.441E-02  0.740E-02
  15.448  0.301E-01  0.434E-02  0.723E-02  0.702E-02  0.427E-02  0.723E-02
  15.498  0.279E-01  0.390E-02  0.680E-02  0.658E-02  0.385E-02  0.680E-02
  15.548  0.271E-01  0.374E-02  0.662E-02  0.641E-02  0.368E-02  0.662E-02
  15.598  0.263E-01  0.358E-02  0.646E-02  0.625E-02  0.352E-02  0.646E-02
  15.648  0.255E-01  0.344E-02  0.630E-02  0.610E-02  0.338E-02  0.630E-02
  15.698  0.246E-01  0.328E-02  0.611E-02  0.592E-02  0.322E-02  0.611E-02
  15.748  0.239E-01  0.315E-02  0.594E-02  0.576E-02  0.308E-02  0.594E-02
  15.798  0.230E-01  0.300E-02  0.575E-02  0.559E-02  0.294E-02  0.575E-02
  15.848  0.222E-01  0.286E-02  0.556E-02  0.540E-02  0.281E-02  0.556E-02
  15.898  0.214E-01  0.273E-02  0.540E-02  0.524E-02  0.268E-02  0.540E-02
  15.948  0.209E-01  0.262E-02  0.527E-02  0.512E-02  0.259E-02  0.527E-02
  15.998  0.204E-01  0.254E-02  0.515E-02  0.502E-02  0.250E-02  0.515E-02
  16.048  0.198E-01  0.245E-02  0.503E-02  0.491E-02  0.242E-02  0.503E-02
  16.098  0.197E-01  0.236E-02  0.502E-02  0.498E-02  0.232E-02  0.502E-02
  16.148  0.209E-01  0.226E-02  0.538E-02  0.572E-02  0.222E-02  0.538E-02
  16.198  0.249E-01  0.216E-02  0.667E-02  0.726E-02  0.212E-02  0.667E-02
  16.248  0.302E-01  0.207E-02  0.854E-02  0.901E-02  0.202E-02  0.854E-02
  16.298  0.367E-01  0.201E-02  0.110E-01  0.108E-01  0.195E-02  0.110E-01
  16.348  0.379E-01  0.195E-02  0.115E-01  0.110E-01  0.189E-02  0.115E-01
  16.398  0.359E-01  0.188E-02  0.107E-01  0.107E-01  0.182E-02  0.107E-01
  16.448  0.363E-01  0.182E-02  0.109E-01  0.110E-01  0.177E-02  0.109E-01
  16.498  0.389E-01  0.177E-02  0.116E-01  0.123E-01  0.173E-02  0.116E-01
  16.548  0.396E-01  0.172E-02  0.117E-01  0.127E-01  0.168E-02  0.117E-01
  16.598  0.393E-01  0.167E-02  0.119E-01  0.122E-01  0.164E-02  0.119E-01
  16.648  0.368E-01  0.160E-02  0.110E-01  0.115E-01  0.156E-02  0.110E-01
  16.698  0.358E-01  0.154E-02  0.108E-01  0.111E-01  0.151E-02  0.108E-01
  16.748  0.353E-01  0.148E-02  0.107E-01  0.109E-01  0.145E-02  0.107E-01
  16.798  0.355E-01  0.141E-02  0.108E-01  0.111E-01  0.139E-02  0.108E-01
  16.848  0.364E-01  0.135E-02  0.111E-01  0.115E-01  0.133E-02  0.111E-01
  16.898  0.355E-01  0.128E-02  0.108E-01  0.114E-01  0.127E-02  0.108E-01
  16.948  0.329E-01  0.115E-02  0.100E-01  0.106E-01  0.114E-02  0.100E-01
  16.998  0.315E-01  0.107E-02  0.963E-02  0.101E-01  0.107E-02  0.963E-02
  17.048  0.306E-01  0.102E-02  0.942E-02  0.973E-02  0.103E-02  0.942E-02
  17.098  0.293E-01  0.965E-03  0.907E-02  0.921E-02  0.966E-03  0.907E-02
  17.148  0.273E-01  0.893E-03  0.844E-02  0.867E-02  0.888E-03  0.844E-02
  17.198  0.261E-01  0.835E-03  0.807E-02  0.828E-02  0.828E-03  0.807E-02
  17.248  0.254E-01  0.800E-03  0.790E-02  0.805E-02  0.794E-03  0.790E-02
  17.298  0.258E-01  0.794E-03  0.803E-02  0.811E-02  0.789E-03  0.803E-02
  17.348  0.261E-01  0.795E-03  0.816E-02  0.820E-02  0.792E-03  0.816E-02
  17.398  0.262E-01  0.792E-03  0.821E-02  0.824E-02  0.790E-03  0.821E-02
  17.448  0.259E-01  0.773E-03  0.809E-02  0.814E-02  0.772E-03  0.809E-02
  17.498  0.257E-01  0.764E-03  0.801E-02  0.810E-02  0.762E-03  0.801E-02
  17.548  0.254E-01  0.769E-03  0.791E-02  0.803E-02  0.768E-03  0.791E-02
  17.598  0.249E-01  0.773E-03  0.772E-02  0.787E-02  0.772E-03  0.772E-02
  17.648  0.249E-01  0.788E-03  0.772E-02  0.789E-02  0.782E-03  0.772E-02
  17.698  0.254E-01  0.857E-03  0.781E-02  0.806E-02  0.822E-03  0.781E-02
  17.748  0.239E-01  0.822E-03  0.737E-02  0.757E-02  0.810E-03  0.737E-02
  17.798  0.227E-01  0.760E-03  0.702E-02  0.716E-02  0.772E-03  0.702E-02
  17.848  0.224E-01  0.766E-03  0.691E-02  0.703E-02  0.775E-03  0.691E-02
  17.898  0.221E-01  0.775E-03  0.680E-02  0.689E-02  0.781E-03  0.680E-02
  17.948  0.217E-01  0.785E-03  0.669E-02  0.677E-02  0.789E-03  0.669E-02
  17.998  0.210E-01  0.788E-03  0.646E-02  0.652E-02  0.787E-03  0.646E-02
  18.048  0.204E-01  0.783E-03  0.624E-02  0.635E-02  0.778E-03  0.624E-02
  18.098  0.198E-01  0.779E-03  0.605E-02  0.618E-02  0.773E-03  0.605E-02
  18.148  0.193E-01  0.776E-03  0.588E-02  0.601E-02  0.769E-03  0.588E-02
  18.198  0.189E-01  0.777E-03  0.572E-02  0.588E-02  0.770E-03  0.572E-02
  18.248  0.184E-01  0.774E-03  0.556E-02  0.573E-02  0.766E-03  0.556E-02
  18.298  0.178E-01  0.766E-03  0.537E-02  0.556E-02  0.758E-03  0.537E-02
  18.348  0.173E-01  0.759E-03  0.518E-02  0.538E-02  0.751E-03  0.518E-02
  18.398  0.169E-01  0.758E-03  0.505E-02  0.525E-02  0.749E-03  0.505E-02
  18.448  0.165E-01  0.757E-03  0.493E-02  0.512E-02  0.748E-03  0.493E-02
  18.498  0.161E-01  0.758E-03  0.481E-02  0.499E-02  0.748E-03  0.481E-02
  18.548  0.158E-01  0.760E-03  0.472E-02  0.487E-02  0.749E-03  0.472E-02
  18.598  0.156E-01  0.762E-03  0.467E-02  0.477E-02  0.751E-03  0.467E-02
  18.648  0.157E-01  0.771E-03  0.470E-02  0.474E-02  0.759E-03  0.470E-02
  18.698  0.159E-01  0.791E-03  0.473E-02  0.490E-02  0.785E-03  0.473E-02
  18.748  0.155E-01  0.793E-03  0.457E-02  0.475E-02  0.790E-03  0.457E-02
  18.798  0.148E-01  0.807E-03  0.437E-02  0.445E-02  0.807E-03  0.437E-02
  18.848  0.140E-01  0.776E-03  0.415E-02  0.416E-02  0.775E-03  0.415E-02
  18.898  0.134E-01  0.757E-03  0.398E-02  0.396E-02  0.751E-03  0.398E-02
  18.948  0.130E-01  0.749E-03  0.384E-02  0.379E-02  0.742E-03  0.384E-02
  18.998  0.125E-01  0.745E-03  0.371E-02  0.363E-02  0.737E-03  0.371E-02
  19.048  0.122E-01  0.745E-03  0.360E-02  0.350E-02  0.737E-03  0.360E-02
  19.098  0.119E-01  0.746E-03  0.351E-02  0.340E-02  0.740E-03  0.351E-02
  19.148  0.117E-01  0.749E-03  0.342E-02  0.332E-02  0.745E-03  0.342E-02
  19.198  0.114E-01  0.754E-03  0.334E-02  0.324E-02  0.752E-03  0.334E-02
  19.248  0.112E-01  0.759E-03  0.326E-02  0.317E-02  0.759E-03  0.326E-02
  19.298  0.110E-01  0.765E-03  0.318E-02  0.309E-02  0.767E-03  0.318E-02
  19.348  0.108E-01  0.772E-03  0.310E-02  0.302E-02  0.777E-03  0.310E-02
  19.398  0.106E-01  0.798E-03  0.303E-02  0.296E-02  0.799E-03  0.303E-02
  19.448  0.113E-01  0.122E-02  0.296E-02  0.290E-02  0.123E-02  0.296E-02
  19.498  0.118E-01  0.153E-02  0.291E-02  0.285E-02  0.159E-02  0.291E-02
  19.548  0.137E-01  0.258E-02  0.284E-02  0.279E-02  0.262E-02  0.284E-02
  19.598  0.123E-01  0.199E-02  0.280E-02  0.275E-02  0.198E-02  0.280E-02
  19.648  0.127E-01  0.224E-02  0.275E-02  0.271E-02  0.222E-02  0.275E-02
  19.698  0.137E-01  0.277E-02  0.271E-02  0.268E-02  0.278E-02  0.271E-02
  19.748  0.141E-01  0.312E-02  0.261E-02  0.260E-02  0.318E-02  0.261E-02
  19.798  0.138E-01  0.307E-02  0.254E-02  0.254E-02  0.310E-02  0.254E-02
  19.848  0.139E-01  0.316E-02  0.249E-02  0.250E-02  0.323E-02  0.249E-02
  19.898  0.145E-01  0.344E-02  0.251E-02  0.254E-02  0.355E-02  0.251E-02
  19.948  0.145E-01  0.337E-02  0.254E-02  0.259E-02  0.349E-02  0.254E-02
  19.998  0.144E-01  0.327E-02  0.258E-02  0.263E-02  0.337E-02  0.258E-02
  20.048  0.144E-01  0.336E-02  0.254E-02  0.258E-02  0.334E-02  0.254E-02
  20.098  0.137E-01  0.327E-02  0.240E-02  0.243E-02  0.323E-02  0.240E-02
  20.148  0.135E-01  0.329E-02  0.229E-02  0.232E-02  0.329E-02  0.229E-02
  20.198  0.134E-01  0.345E-02  0.218E-02  0.221E-02  0.341E-02  0.218E-02
  20.248  0.143E-01  0.408E-02  0.210E-02  0.214E-02  0.389E-02  0.210E-02
  20.298  0.144E-01  0.427E-02  0.204E-02  0.208E-02  0.399E-02  0.204E-02
  20.348  0.134E-01  0.386E-02  0.193E-02  0.198E-02  0.371E-02  0.193E-02
  20.398  0.128E-01  0.370E-02  0.183E-02  0.189E-02  0.354E-02  0.183E-02
  20.448  0.125E-01  0.369E-02  0.173E-02  0.181E-02  0.349E-02  0.173E-02
  20.498  0.120E-01  0.361E-02  0.163E-02  0.171E-02  0.337E-02  0.163E-02
  20.548  0.114E-01  0.348E-02  0.154E-02  0.163E-02  0.319E-02  0.154E-02
  20.598  0.951E-02  0.268E-02  0.144E-02  0.153E-02  0.242E-02  0.144E-02
  20.648  0.848E-02  0.228E-02  0.135E-02  0.145E-02  0.205E-02  0.135E-02
  20.698  0.770E-02  0.198E-02  0.127E-02  0.137E-02  0.181E-02  0.127E-02
  20.748  0.706E-02  0.176E-02  0.119E-02  0.130E-02  0.162E-02  0.119E-02
  20.798  0.654E-02  0.158E-02  0.113E-02  0.124E-02  0.148E-02  0.113E-02
  20.848  0.610E-02  0.143E-02  0.107E-02  0.118E-02  0.136E-02  0.107E-02
  20.898  0.561E-02  0.126E-02  0.101E-02  0.113E-02  0.121E-02  0.101E-02
  20.948  0.499E-02  0.104E-02  0.934E-03  0.106E-02  0.101E-02  0.934E-03
  20.998  0.434E-02  0.854E-03  0.835E-03  0.971E-03  0.845E-03  0.835E-03
  21.048  0.371E-02  0.674E-03  0.736E-03  0.882E-03  0.679E-03  0.736E-03
  21.098  0.318E-02  0.526E-03  0.653E-03  0.807E-03  0.538E-03  0.653E-03
  21.148  0.252E-02  0.374E-03  0.536E-03  0.691E-03  0.385E-03  0.536E-03
  21.198  0.216E-02  0.305E-03  0.466E-03  0.606E-03  0.318E-03  0.466E-03
  21.248  0.185E-02  0.257E-03  0.399E-03  0.523E-03  0.270E-03  0.399E-03
  21.298  0.155E-02  0.222E-03  0.330E-03  0.434E-03  0.233E-03  0.330E-03
  21.348  0.129E-02  0.196E-03  0.269E-03  0.351E-03  0.203E-03  0.269E-03
  21.398  0.107E-02  0.176E-03  0.219E-03  0.280E-03  0.179E-03  0.219E-03
  21.448  0.900E-03  0.158E-03  0.178E-03  0.225E-03  0.160E-03  0.178E-03
  21.498  0.761E-03  0.140E-03  0.147E-03  0.186E-03  0.141E-03  0.147E-03
  21.548  0.638E-03  0.121E-03  0.121E-03  0.154E-03  0.122E-03  0.121E-03
  21.598  0.526E-03  0.100E-03  0.989E-04  0.126E-03  0.101E-03  0.989E-04
  21.648  0.421E-03  0.790E-04  0.799E-04  0.103E-03  0.795E-04  0.799E-04
  21.698  0.335E-03  0.606E-04  0.647E-04  0.841E-04  0.608E-04  0.647E-04
  21.748  0.264E-03  0.451E-04  0.525E-04  0.690E-04  0.452E-04  0.525E-04
  21.798  0.206E-03  0.319E-04  0.425E-04  0.567E-04  0.320E-04  0.425E-04
  21.848  0.157E-03  0.210E-04  0.342E-04  0.464E-04  0.211E-04  0.342E-04
  21.898  0.117E-03  0.126E-04  0.271E-04  0.375E-04  0.126E-04  0.271E-04
  21.948  0.851E-04  0.677E-05  0.210E-04  0.295E-04  0.679E-05  0.210E-04
  21.998  0.599E-04  0.306E-05  0.157E-04  0.224E-04  0.307E-05  0.157E-04
  22.048  0.408E-04  0.131E-05  0.111E-04  0.159E-04  0.131E-05  0.111E-04
  22.098  0.260E-04  0.495E-06  0.730E-05  0.104E-04  0.501E-06  0.730E-05
