# E (eV)   ldos(E)   pdos(E)   
   3.148  0.292E-02  0.292E-02
   3.198  0.148E-01  0.148E-01
   3.248  0.201E-01  0.201E-01
   3.298  0.211E-01  0.211E-01
   3.348  0.224E-01  0.224E-01
   3.398  0.240E-01  0.240E-01
   3.448  0.257E-01  0.257E-01
   3.498  0.265E-01  0.265E-01
   3.548  0.259E-01  0.259E-01
   3.598  0.257E-01  0.257E-01
   3.648  0.260E-01  0.260E-01
   3.698  0.263E-01  0.263E-01
   3.748  0.266E-01  0.266E-01
   3.798  0.269E-01  0.269E-01
   3.848  0.271E-01  0.271E-01
   3.898  0.272E-01  0.272E-01
   3.948  0.269E-01  0.269E-01
   3.998  0.268E-01  0.268E-01
   4.048  0.268E-01  0.268E-01
   4.098  0.269E-01  0.269E-01
   4.148  0.270E-01  0.270E-01
   4.198  0.271E-01  0.271E-01
   4.248  0.271E-01  0.271E-01
   4.298  0.273E-01  0.273E-01
   4.348  0.275E-01  0.275E-01
   4.398  0.277E-01  0.277E-01
   4.448  0.279E-01  0.279E-01
   4.498  0.279E-01  0.279E-01
   4.548  0.280E-01  0.280E-01
   4.598  0.281E-01  0.281E-01
   4.648  0.283E-01  0.283E-01
   4.698  0.285E-01  0.285E-01
   4.748  0.287E-01  0.287E-01
   4.798  0.289E-01  0.289E-01
   4.848  0.292E-01  0.292E-01
   4.898  0.296E-01  0.296E-01
   4.948  0.299E-01  0.299E-01
   4.998  0.303E-01  0.303E-01
   5.048  0.307E-01  0.307E-01
   5.098  0.310E-01  0.310E-01
   5.148  0.310E-01  0.310E-01
   5.198  0.308E-01  0.308E-01
   5.248  0.308E-01  0.308E-01
   5.298  0.308E-01  0.308E-01
   5.348  0.309E-01  0.309E-01
   5.398  0.308E-01  0.308E-01
   5.448  0.306E-01  0.306E-01
   5.498  0.305E-01  0.305E-01
   5.548  0.305E-01  0.305E-01
   5.598  0.304E-01  0.304E-01
   5.648  0.302E-01  0.302E-01
   5.698  0.300E-01  0.300E-01
   5.748  0.297E-01  0.297E-01
   5.798  0.293E-01  0.293E-01
   5.848  0.289E-01  0.289E-01
   5.898  0.304E-01  0.304E-01
   5.948  0.327E-01  0.327E-01
   5.998  0.342E-01  0.342E-01
   6.048  0.358E-01  0.358E-01
   6.098  0.376E-01  0.376E-01
   6.148  0.394E-01  0.394E-01
   6.198  0.406E-01  0.406E-01
   6.248  0.416E-01  0.416E-01
   6.298  0.425E-01  0.425E-01
   6.348  0.437E-01  0.437E-01
   6.398  0.448E-01  0.448E-01
   6.448  0.464E-01  0.464E-01
   6.498  0.477E-01  0.477E-01
   6.548  0.486E-01  0.486E-01
   6.598  0.500E-01  0.500E-01
   6.648  0.512E-01  0.512E-01
   6.698  0.530E-01  0.530E-01
   6.748  0.554E-01  0.554E-01
   6.798  0.585E-01  0.585E-01
   6.848  0.623E-01  0.623E-01
   6.898  0.662E-01  0.662E-01
   6.948  0.705E-01  0.705E-01
   6.998  0.749E-01  0.749E-01
   7.048  0.793E-01  0.793E-01
   7.098  0.839E-01  0.839E-01
   7.148  0.877E-01  0.877E-01
   7.198  0.911E-01  0.911E-01
   7.248  0.949E-01  0.949E-01
   7.298  0.990E-01  0.990E-01
   7.348  0.102E+00  0.102E+00
   7.398  0.107E+00  0.107E+00
   7.448  0.161E+00  0.161E+00
   7.498  0.114E+00  0.114E+00
   7.548  0.113E+00  0.113E+00
   7.598  0.116E+00  0.116E+00
   7.648  0.130E+00  0.130E+00
   7.698  0.129E+00  0.129E+00
   7.748  0.134E+00  0.134E+00
   7.798  0.152E+00  0.152E+00
   7.848  0.155E+00  0.155E+00
   7.898  0.155E+00  0.155E+00
   7.948  0.140E+00  0.140E+00
   7.998  0.125E+00  0.125E+00
   8.048  0.120E+00  0.120E+00
   8.098  0.113E+00  0.113E+00
   8.148  0.103E+00  0.103E+00
   8.198  0.883E-01  0.883E-01
   8.248  0.807E-01  0.807E-01
   8.298  0.729E-01  0.729E-01
   8.348  0.658E-01  0.658E-01
   8.398  0.570E-01  0.570E-01
   8.448  0.512E-01  0.512E-01
   8.498  0.333E-01  0.333E-01
   8.548  0.207E-01  0.207E-01
   8.598  0.452E-02  0.452E-02
   8.648  0.545E-02  0.545E-02
   8.698  0.881E-02  0.881E-02
   8.748  0.908E-02  0.908E-02
   8.798  0.407E-02  0.407E-02
   8.848  0.525E-02  0.525E-02
   8.898  0.172E-02  0.172E-02
   8.948  0.127E-02  0.127E-02
   8.998  0.365E-02  0.365E-02
   9.048  0.709E-02  0.709E-02
   9.098  0.827E-02  0.827E-02
   9.148  0.914E-02  0.914E-02
   9.198  0.124E-01  0.124E-01
   9.248  0.162E-01  0.162E-01
   9.298  0.193E-01  0.193E-01
   9.348  0.217E-01  0.217E-01
   9.398  0.268E-01  0.268E-01
   9.448  0.323E-01  0.323E-01
   9.498  0.278E-01  0.278E-01
   9.548  0.257E-01  0.257E-01
   9.598  0.214E-01  0.214E-01
   9.648  0.218E-01  0.218E-01
   9.698  0.140E-01  0.140E-01
   9.748  0.146E-01  0.146E-01
   9.798  0.135E-01  0.135E-01
   9.848  0.112E-01  0.112E-01
   9.898  0.955E-02  0.955E-02
   9.948  0.916E-02  0.916E-02
   9.998  0.885E-02  0.885E-02
  10.048  0.860E-02  0.860E-02
  10.098  0.998E-02  0.998E-02
  10.148  0.752E-02  0.752E-02
  10.198  0.843E-02  0.843E-02
  10.248  0.124E-01  0.124E-01
  10.298  0.110E-01  0.110E-01
  10.348  0.968E-02  0.968E-02
  10.398  0.868E-02  0.868E-02
  10.448  0.654E-02  0.654E-02
  10.498  0.511E-02  0.511E-02
  10.548  0.484E-02  0.484E-02
  10.598  0.654E-02  0.654E-02
  10.648  0.619E-02  0.619E-02
  10.698  0.536E-02  0.536E-02
  10.748  0.644E-02  0.644E-02
  10.798  0.349E-02  0.349E-02
  10.848  0.593E-02  0.593E-02
  10.898  0.123E-01  0.123E-01
  10.948  0.119E-01  0.119E-01
  10.998  0.106E-01  0.106E-01
  11.048  0.124E-01  0.124E-01
  11.098  0.141E-01  0.141E-01
  11.148  0.155E-01  0.155E-01
  11.198  0.165E-01  0.165E-01
  11.248  0.175E-01  0.175E-01
  11.298  0.187E-01  0.187E-01
  11.348  0.192E-01  0.192E-01
  11.398  0.198E-01  0.198E-01
  11.448  0.201E-01  0.201E-01
  11.498  0.201E-01  0.201E-01
  11.548  0.199E-01  0.199E-01
  11.598  0.195E-01  0.195E-01
  11.648  0.190E-01  0.190E-01
  11.698  0.181E-01  0.181E-01
  11.748  0.175E-01  0.175E-01
  11.798  0.179E-01  0.179E-01
  11.848  0.181E-01  0.181E-01
  11.898  0.175E-01  0.175E-01
  11.948  0.176E-01  0.176E-01
  11.998  0.176E-01  0.176E-01
  12.048  0.179E-01  0.179E-01
  12.098  0.198E-01  0.198E-01
  12.148  0.244E-01  0.244E-01
  12.198  0.283E-01  0.283E-01
  12.248  0.301E-01  0.301E-01
  12.298  0.316E-01  0.316E-01
  12.348  0.334E-01  0.334E-01
  12.398  0.349E-01  0.349E-01
  12.448  0.363E-01  0.363E-01
  12.498  0.377E-01  0.377E-01
  12.548  0.392E-01  0.392E-01
  12.598  0.408E-01  0.408E-01
  12.648  0.428E-01  0.428E-01
  12.698  0.447E-01  0.447E-01
  12.748  0.464E-01  0.464E-01
  12.798  0.458E-01  0.458E-01
  12.848  0.414E-01  0.414E-01
  12.898  0.394E-01  0.394E-01
  12.948  0.390E-01  0.390E-01
  12.998  0.394E-01  0.394E-01
  13.048  0.394E-01  0.394E-01
  13.098  0.396E-01  0.396E-01
  13.148  0.392E-01  0.392E-01
  13.198  0.389E-01  0.389E-01
  13.248  0.388E-01  0.388E-01
  13.298  0.392E-01  0.392E-01
  13.348  0.392E-01  0.392E-01
  13.398  0.389E-01  0.389E-01
  13.448  0.389E-01  0.389E-01
  13.498  0.390E-01  0.390E-01
  13.548  0.394E-01  0.394E-01
  13.598  0.399E-01  0.399E-01
  13.648  0.400E-01  0.400E-01
  13.698  0.392E-01  0.392E-01
  13.748  0.390E-01  0.390E-01
  13.798  0.397E-01  0.397E-01
  13.848  0.403E-01  0.403E-01
  13.898  0.405E-01  0.405E-01
  13.948  0.405E-01  0.405E-01
  13.998  0.402E-01  0.402E-01
  14.048  0.400E-01  0.400E-01
  14.098  0.398E-01  0.398E-01
  14.148  0.396E-01  0.396E-01
  14.198  0.394E-01  0.394E-01
  14.248  0.389E-01  0.389E-01
  14.298  0.385E-01  0.385E-01
  14.348  0.380E-01  0.380E-01
  14.398  0.376E-01  0.376E-01
  14.448  0.371E-01  0.371E-01
  14.498  0.366E-01  0.366E-01
  14.548  0.359E-01  0.359E-01
  14.598  0.345E-01  0.345E-01
  14.648  0.340E-01  0.340E-01
  14.698  0.333E-01  0.333E-01
  14.748  0.325E-01  0.325E-01
  14.798  0.318E-01  0.318E-01
  14.848  0.309E-01  0.309E-01
  14.898  0.301E-01  0.301E-01
  14.948  0.296E-01  0.296E-01
  14.998  0.291E-01  0.291E-01
  15.048  0.282E-01  0.282E-01
  15.098  0.275E-01  0.275E-01
  15.148  0.267E-01  0.267E-01
  15.198  0.258E-01  0.258E-01
  15.248  0.250E-01  0.250E-01
  15.298  0.243E-01  0.243E-01
  15.348  0.237E-01  0.237E-01
  15.398  0.230E-01  0.230E-01
  15.448  0.223E-01  0.223E-01
  15.498  0.214E-01  0.214E-01
  15.548  0.207E-01  0.207E-01
  15.598  0.201E-01  0.201E-01
  15.648  0.195E-01  0.195E-01
  15.698  0.187E-01  0.187E-01
  15.748  0.181E-01  0.181E-01
  15.798  0.174E-01  0.174E-01
  15.848  0.168E-01  0.168E-01
  15.898  0.162E-01  0.162E-01
  15.948  0.159E-01  0.159E-01
  15.998  0.155E-01  0.155E-01
  16.048  0.151E-01  0.151E-01
  16.098  0.169E-01  0.169E-01
  16.148  0.274E-01  0.274E-01
  16.198  0.489E-01  0.489E-01
  16.248  0.736E-01  0.736E-01
  16.298  0.982E-01  0.982E-01
  16.348  0.103E+00  0.103E+00
  16.398  0.102E+00  0.102E+00
  16.448  0.108E+00  0.108E+00
  16.498  0.127E+00  0.127E+00
  16.548  0.135E+00  0.135E+00
  16.598  0.131E+00  0.131E+00
  16.648  0.123E+00  0.123E+00
  16.698  0.120E+00  0.120E+00
  16.748  0.120E+00  0.120E+00
  16.798  0.125E+00  0.125E+00
  16.848  0.135E+00  0.135E+00
  16.898  0.136E+00  0.136E+00
  16.948  0.129E+00  0.129E+00
  16.998  0.124E+00  0.124E+00
  17.048  0.120E+00  0.120E+00
  17.098  0.115E+00  0.115E+00
  17.148  0.109E+00  0.109E+00
  17.198  0.105E+00  0.105E+00
  17.248  0.103E+00  0.103E+00
  17.298  0.104E+00  0.104E+00
  17.348  0.105E+00  0.105E+00
  17.398  0.104E+00  0.104E+00
  17.448  0.101E+00  0.101E+00
  17.498  0.983E-01  0.983E-01
  17.548  0.964E-01  0.964E-01
  17.598  0.937E-01  0.937E-01
  17.648  0.914E-01  0.914E-01
  17.698  0.897E-01  0.897E-01
  17.748  0.875E-01  0.875E-01
  17.798  0.847E-01  0.847E-01
  17.848  0.819E-01  0.819E-01
  17.898  0.792E-01  0.792E-01
  17.948  0.769E-01  0.769E-01
  17.998  0.735E-01  0.735E-01
  18.048  0.711E-01  0.711E-01
  18.098  0.690E-01  0.690E-01
  18.148  0.671E-01  0.671E-01
  18.198  0.652E-01  0.652E-01
  18.248  0.633E-01  0.633E-01
  18.298  0.613E-01  0.613E-01
  18.348  0.594E-01  0.594E-01
  18.398  0.575E-01  0.575E-01
  18.448  0.555E-01  0.555E-01
  18.498  0.536E-01  0.536E-01
  18.548  0.518E-01  0.518E-01
  18.598  0.501E-01  0.501E-01
  18.648  0.486E-01  0.486E-01
  18.698  0.474E-01  0.474E-01
  18.748  0.460E-01  0.460E-01
  18.798  0.449E-01  0.449E-01
  18.848  0.431E-01  0.431E-01
  18.898  0.412E-01  0.412E-01
  18.948  0.398E-01  0.398E-01
  18.998  0.384E-01  0.384E-01
  19.048  0.374E-01  0.374E-01
  19.098  0.364E-01  0.364E-01
  19.148  0.355E-01  0.355E-01
  19.198  0.348E-01  0.348E-01
  19.248  0.341E-01  0.341E-01
  19.298  0.334E-01  0.334E-01
  19.348  0.328E-01  0.328E-01
  19.398  0.325E-01  0.325E-01
  19.448  0.429E-01  0.429E-01
  19.498  0.517E-01  0.517E-01
  19.548  0.753E-01  0.753E-01
  19.598  0.571E-01  0.571E-01
  19.648  0.613E-01  0.613E-01
  19.698  0.729E-01  0.729E-01
  19.748  0.826E-01  0.826E-01
  19.798  0.800E-01  0.800E-01
  19.848  0.822E-01  0.822E-01
  19.898  0.864E-01  0.864E-01
  19.948  0.866E-01  0.866E-01
  19.998  0.879E-01  0.879E-01
  20.048  0.928E-01  0.928E-01
  20.098  0.978E-01  0.978E-01
  20.148  0.104E+00  0.104E+00
  20.198  0.109E+00  0.109E+00
  20.248  0.119E+00  0.119E+00
  20.298  0.122E+00  0.122E+00
  20.348  0.117E+00  0.117E+00
  20.398  0.112E+00  0.112E+00
  20.448  0.109E+00  0.109E+00
  20.498  0.105E+00  0.105E+00
  20.548  0.988E-01  0.988E-01
  20.598  0.811E-01  0.811E-01
  20.648  0.734E-01  0.734E-01
  20.698  0.681E-01  0.681E-01
  20.748  0.637E-01  0.637E-01
  20.798  0.602E-01  0.602E-01
  20.848  0.572E-01  0.572E-01
  20.898  0.528E-01  0.528E-01
  20.948  0.464E-01  0.464E-01
  20.998  0.401E-01  0.401E-01
  21.048  0.337E-01  0.337E-01
  21.098  0.281E-01  0.281E-01
  21.148  0.202E-01  0.202E-01
  21.198  0.173E-01  0.173E-01
  21.248  0.148E-01  0.148E-01
  21.298  0.126E-01  0.126E-01
  21.348  0.109E-01  0.109E-01
  21.398  0.966E-02  0.966E-02
  21.448  0.861E-02  0.861E-02
  21.498  0.761E-02  0.761E-02
  21.548  0.659E-02  0.659E-02
  21.598  0.547E-02  0.547E-02
  21.648  0.433E-02  0.433E-02
  21.698  0.333E-02  0.333E-02
  21.748  0.249E-02  0.249E-02
  21.798  0.177E-02  0.177E-02
  21.848  0.117E-02  0.117E-02
  21.898  0.709E-03  0.709E-03
  21.948  0.383E-03  0.383E-03
  21.998  0.175E-03  0.175E-03
  22.048  0.749E-04  0.749E-04
  22.098  0.279E-04  0.279E-04
