# E (eV)   ldos(E)   pdos(E)   
   3.148  0.292E-02  0.292E-02
   3.198  0.148E-01  0.148E-01
   3.248  0.201E-01  0.201E-01
   3.298  0.211E-01  0.211E-01
   3.348  0.224E-01  0.224E-01
   3.398  0.240E-01  0.240E-01
   3.448  0.257E-01  0.257E-01
   3.498  0.265E-01  0.265E-01
   3.548  0.259E-01  0.259E-01
   3.598  0.257E-01  0.257E-01
   3.648  0.260E-01  0.260E-01
   3.698  0.263E-01  0.263E-01
   3.748  0.266E-01  0.266E-01
   3.798  0.269E-01  0.269E-01
   3.848  0.271E-01  0.271E-01
   3.898  0.272E-01  0.272E-01
   3.948  0.269E-01  0.269E-01
   3.998  0.268E-01  0.268E-01
   4.048  0.268E-01  0.268E-01
   4.098  0.269E-01  0.269E-01
   4.148  0.270E-01  0.270E-01
   4.198  0.271E-01  0.271E-01
   4.248  0.271E-01  0.271E-01
   4.298  0.273E-01  0.273E-01
   4.348  0.275E-01  0.275E-01
   4.398  0.277E-01  0.277E-01
   4.448  0.279E-01  0.279E-01
   4.498  0.279E-01  0.279E-01
   4.548  0.279E-01  0.279E-01
   4.598  0.280E-01  0.280E-01
   4.648  0.281E-01  0.281E-01
   4.698  0.282E-01  0.282E-01
   4.748  0.284E-01  0.284E-01
   4.798  0.285E-01  0.285E-01
   4.848  0.287E-01  0.287E-01
   4.898  0.290E-01  0.290E-01
   4.948  0.293E-01  0.293E-01
   4.998  0.296E-01  0.296E-01
   5.048  0.299E-01  0.299E-01
   5.098  0.302E-01  0.302E-01
   5.148  0.302E-01  0.302E-01
   5.198  0.300E-01  0.300E-01
   5.248  0.301E-01  0.301E-01
   5.298  0.303E-01  0.303E-01
   5.348  0.306E-01  0.306E-01
   5.398  0.308E-01  0.308E-01
   5.448  0.311E-01  0.311E-01
   5.498  0.315E-01  0.315E-01
   5.548  0.321E-01  0.321E-01
   5.598  0.328E-01  0.328E-01
   5.648  0.334E-01  0.334E-01
   5.698  0.342E-01  0.342E-01
   5.748  0.351E-01  0.351E-01
   5.798  0.361E-01  0.361E-01
   5.848  0.372E-01  0.372E-01
   5.898  0.392E-01  0.392E-01
   5.948  0.410E-01  0.410E-01
   5.998  0.414E-01  0.414E-01
   6.048  0.420E-01  0.420E-01
   6.098  0.428E-01  0.428E-01
   6.148  0.436E-01  0.436E-01
   6.198  0.442E-01  0.442E-01
   6.248  0.447E-01  0.447E-01
   6.298  0.452E-01  0.452E-01
   6.348  0.459E-01  0.459E-01
   6.398  0.465E-01  0.465E-01
   6.448  0.476E-01  0.476E-01
   6.498  0.490E-01  0.490E-01
   6.548  0.498E-01  0.498E-01
   6.598  0.508E-01  0.508E-01
   6.648  0.515E-01  0.515E-01
   6.698  0.524E-01  0.524E-01
   6.748  0.537E-01  0.537E-01
   6.798  0.550E-01  0.550E-01
   6.848  0.563E-01  0.563E-01
   6.898  0.574E-01  0.574E-01
   6.948  0.597E-01  0.597E-01
   6.998  0.613E-01  0.613E-01
   7.048  0.632E-01  0.632E-01
   7.098  0.659E-01  0.659E-01
   7.148  0.685E-01  0.685E-01
   7.198  0.717E-01  0.717E-01
   7.248  0.759E-01  0.759E-01
   7.298  0.804E-01  0.804E-01
   7.348  0.102E+00  0.102E+00
   7.398  0.119E+00  0.119E+00
   7.448  0.137E+00  0.137E+00
   7.498  0.130E+00  0.130E+00
   7.548  0.127E+00  0.127E+00
   7.598  0.137E+00  0.137E+00
   7.648  0.155E+00  0.155E+00
   7.698  0.151E+00  0.151E+00
   7.748  0.146E+00  0.146E+00
   7.798  0.145E+00  0.145E+00
   7.848  0.136E+00  0.136E+00
   7.898  0.135E+00  0.135E+00
   7.948  0.132E+00  0.132E+00
   7.998  0.122E+00  0.122E+00
   8.048  0.117E+00  0.117E+00
   8.098  0.119E+00  0.119E+00
   8.148  0.107E+00  0.107E+00
   8.198  0.937E-01  0.937E-01
   8.248  0.855E-01  0.855E-01
   8.298  0.754E-01  0.754E-01
   8.348  0.668E-01  0.668E-01
   8.398  0.575E-01  0.575E-01
   8.448  0.517E-01  0.517E-01
   8.498  0.354E-01  0.354E-01
   8.548  0.227E-01  0.227E-01
   8.598  0.454E-02  0.454E-02
   8.648  0.511E-02  0.511E-02
   8.698  0.792E-02  0.792E-02
   8.748  0.107E-01  0.107E-01
   8.798  0.323E-02  0.323E-02
   8.848  0.378E-02  0.378E-02
   8.898  0.324E-02  0.324E-02
   8.948  0.257E-02  0.257E-02
   8.998  0.351E-02  0.351E-02
   9.048  0.678E-02  0.678E-02
   9.098  0.878E-02  0.878E-02
   9.148  0.107E-01  0.107E-01
   9.198  0.127E-01  0.127E-01
   9.248  0.156E-01  0.156E-01
   9.298  0.190E-01  0.190E-01
   9.348  0.217E-01  0.217E-01
   9.398  0.280E-01  0.280E-01
   9.448  0.330E-01  0.330E-01
   9.498  0.275E-01  0.275E-01
   9.548  0.249E-01  0.249E-01
   9.598  0.207E-01  0.207E-01
   9.648  0.208E-01  0.208E-01
   9.698  0.138E-01  0.138E-01
   9.748  0.145E-01  0.145E-01
   9.798  0.133E-01  0.133E-01
   9.848  0.112E-01  0.112E-01
   9.898  0.966E-02  0.966E-02
   9.948  0.932E-02  0.932E-02
   9.998  0.899E-02  0.899E-02
  10.048  0.873E-02  0.873E-02
  10.098  0.102E-01  0.102E-01
  10.148  0.773E-02  0.773E-02
  10.198  0.852E-02  0.852E-02
  10.248  0.124E-01  0.124E-01
  10.298  0.112E-01  0.112E-01
  10.348  0.827E-02  0.827E-02
  10.398  0.832E-02  0.832E-02
  10.448  0.659E-02  0.659E-02
  10.498  0.528E-02  0.528E-02
  10.548  0.487E-02  0.487E-02
  10.598  0.668E-02  0.668E-02
  10.648  0.647E-02  0.647E-02
  10.698  0.550E-02  0.550E-02
  10.748  0.639E-02  0.639E-02
  10.798  0.381E-02  0.381E-02
  10.848  0.565E-02  0.565E-02
  10.898  0.975E-02  0.975E-02
  10.948  0.102E-01  0.102E-01
  10.998  0.896E-02  0.896E-02
  11.048  0.105E-01  0.105E-01
  11.098  0.119E-01  0.119E-01
  11.148  0.130E-01  0.130E-01
  11.198  0.139E-01  0.139E-01
  11.248  0.144E-01  0.144E-01
  11.298  0.154E-01  0.154E-01
  11.348  0.165E-01  0.165E-01
  11.398  0.177E-01  0.177E-01
  11.448  0.189E-01  0.189E-01
  11.498  0.201E-01  0.201E-01
  11.548  0.213E-01  0.213E-01
  11.598  0.226E-01  0.226E-01
  11.648  0.242E-01  0.242E-01
  11.698  0.247E-01  0.247E-01
  11.748  0.258E-01  0.258E-01
  11.798  0.277E-01  0.277E-01
  11.848  0.295E-01  0.295E-01
  11.898  0.305E-01  0.305E-01
  11.948  0.318E-01  0.318E-01
  11.998  0.327E-01  0.327E-01
  12.048  0.334E-01  0.334E-01
  12.098  0.338E-01  0.338E-01
  12.148  0.340E-01  0.340E-01
  12.198  0.320E-01  0.320E-01
  12.248  0.319E-01  0.319E-01
  12.298  0.319E-01  0.319E-01
  12.348  0.329E-01  0.329E-01
  12.398  0.337E-01  0.337E-01
  12.448  0.342E-01  0.342E-01
  12.498  0.349E-01  0.349E-01
  12.548  0.358E-01  0.358E-01
  12.598  0.367E-01  0.367E-01
  12.648  0.377E-01  0.377E-01
  12.698  0.390E-01  0.390E-01
  12.748  0.399E-01  0.399E-01
  12.798  0.403E-01  0.403E-01
  12.848  0.391E-01  0.391E-01
  12.898  0.380E-01  0.380E-01
  12.948  0.375E-01  0.375E-01
  12.998  0.381E-01  0.381E-01
  13.048  0.385E-01  0.385E-01
  13.098  0.385E-01  0.385E-01
  13.148  0.384E-01  0.384E-01
  13.198  0.380E-01  0.380E-01
  13.248  0.377E-01  0.377E-01
  13.298  0.381E-01  0.381E-01
  13.348  0.384E-01  0.384E-01
  13.398  0.383E-01  0.383E-01
  13.448  0.384E-01  0.384E-01
  13.498  0.385E-01  0.385E-01
  13.548  0.390E-01  0.390E-01
  13.598  0.394E-01  0.394E-01
  13.648  0.397E-01  0.397E-01
  13.698  0.385E-01  0.385E-01
  13.748  0.379E-01  0.379E-01
  13.798  0.377E-01  0.377E-01
  13.848  0.375E-01  0.375E-01
  13.898  0.372E-01  0.372E-01
  13.948  0.369E-01  0.369E-01
  13.998  0.366E-01  0.366E-01
  14.048  0.363E-01  0.363E-01
  14.098  0.362E-01  0.362E-01
  14.148  0.360E-01  0.360E-01
  14.198  0.354E-01  0.354E-01
  14.248  0.348E-01  0.348E-01
  14.298  0.343E-01  0.343E-01
  14.348  0.336E-01  0.336E-01
  14.398  0.331E-01  0.331E-01
  14.448  0.326E-01  0.326E-01
  14.498  0.321E-01  0.321E-01
  14.548  0.316E-01  0.316E-01
  14.598  0.304E-01  0.304E-01
  14.648  0.303E-01  0.303E-01
  14.698  0.300E-01  0.300E-01
  14.748  0.297E-01  0.297E-01
  14.798  0.294E-01  0.294E-01
  14.848  0.289E-01  0.289E-01
  14.898  0.285E-01  0.285E-01
  14.948  0.282E-01  0.282E-01
  14.998  0.280E-01  0.280E-01
  15.048  0.276E-01  0.276E-01
  15.098  0.272E-01  0.272E-01
  15.148  0.267E-01  0.267E-01
  15.198  0.261E-01  0.261E-01
  15.248  0.256E-01  0.256E-01
  15.298  0.251E-01  0.251E-01
  15.348  0.247E-01  0.247E-01
  15.398  0.242E-01  0.242E-01
  15.448  0.237E-01  0.237E-01
  15.498  0.227E-01  0.227E-01
  15.548  0.221E-01  0.221E-01
  15.598  0.215E-01  0.215E-01
  15.648  0.209E-01  0.209E-01
  15.698  0.201E-01  0.201E-01
  15.748  0.195E-01  0.195E-01
  15.798  0.187E-01  0.187E-01
  15.848  0.179E-01  0.179E-01
  15.898  0.173E-01  0.173E-01
  15.948  0.168E-01  0.168E-01
  15.998  0.163E-01  0.163E-01
  16.048  0.158E-01  0.158E-01
  16.098  0.168E-01  0.168E-01
  16.148  0.225E-01  0.225E-01
  16.198  0.407E-01  0.407E-01
  16.248  0.670E-01  0.670E-01
  16.298  0.101E+00  0.101E+00
  16.348  0.111E+00  0.111E+00
  16.398  0.101E+00  0.101E+00
  16.448  0.105E+00  0.105E+00
  16.498  0.116E+00  0.116E+00
  16.548  0.121E+00  0.121E+00
  16.598  0.126E+00  0.126E+00
  16.648  0.116E+00  0.116E+00
  16.698  0.115E+00  0.115E+00
  16.748  0.116E+00  0.116E+00
  16.798  0.121E+00  0.121E+00
  16.848  0.128E+00  0.128E+00
  16.898  0.126E+00  0.126E+00
  16.948  0.119E+00  0.119E+00
  16.998  0.116E+00  0.116E+00
  17.048  0.115E+00  0.115E+00
  17.098  0.112E+00  0.112E+00
  17.148  0.105E+00  0.105E+00
  17.198  0.102E+00  0.102E+00
  17.248  0.100E+00  0.100E+00
  17.298  0.102E+00  0.102E+00
  17.348  0.104E+00  0.104E+00
  17.398  0.103E+00  0.103E+00
  17.448  0.100E+00  0.100E+00
  17.498  0.968E-01  0.968E-01
  17.548  0.944E-01  0.944E-01
  17.598  0.914E-01  0.914E-01
  17.648  0.890E-01  0.890E-01
  17.698  0.871E-01  0.871E-01
  17.748  0.849E-01  0.849E-01
  17.798  0.824E-01  0.824E-01
  17.848  0.802E-01  0.802E-01
  17.898  0.784E-01  0.784E-01
  17.948  0.764E-01  0.764E-01
  17.998  0.736E-01  0.736E-01
  18.048  0.709E-01  0.709E-01
  18.098  0.688E-01  0.688E-01
  18.148  0.666E-01  0.666E-01
  18.198  0.646E-01  0.646E-01
  18.248  0.624E-01  0.624E-01
  18.298  0.603E-01  0.603E-01
  18.348  0.581E-01  0.581E-01
  18.398  0.560E-01  0.560E-01
  18.448  0.539E-01  0.539E-01
  18.498  0.519E-01  0.519E-01
  18.548  0.501E-01  0.501E-01
  18.598  0.484E-01  0.484E-01
  18.648  0.468E-01  0.468E-01
  18.698  0.453E-01  0.453E-01
  18.748  0.438E-01  0.438E-01
  18.798  0.425E-01  0.425E-01
  18.848  0.409E-01  0.409E-01
  18.898  0.394E-01  0.394E-01
  18.948  0.381E-01  0.381E-01
  18.998  0.369E-01  0.369E-01
  19.048  0.360E-01  0.360E-01
  19.098  0.350E-01  0.350E-01
  19.148  0.342E-01  0.342E-01
  19.198  0.335E-01  0.335E-01
  19.248  0.328E-01  0.328E-01
  19.298  0.321E-01  0.321E-01
  19.348  0.315E-01  0.315E-01
  19.398  0.315E-01  0.315E-01
  19.448  0.416E-01  0.416E-01
  19.498  0.480E-01  0.480E-01
  19.548  0.725E-01  0.725E-01
  19.598  0.571E-01  0.571E-01
  19.648  0.617E-01  0.617E-01
  19.698  0.724E-01  0.724E-01
  19.748  0.800E-01  0.800E-01
  19.798  0.787E-01  0.787E-01
  19.848  0.795E-01  0.795E-01
  19.898  0.820E-01  0.820E-01
  19.948  0.817E-01  0.817E-01
  19.998  0.843E-01  0.843E-01
  20.048  0.936E-01  0.936E-01
  20.098  0.989E-01  0.989E-01
  20.148  0.104E+00  0.104E+00
  20.198  0.111E+00  0.111E+00
  20.248  0.129E+00  0.129E+00
  20.298  0.135E+00  0.135E+00
  20.348  0.123E+00  0.123E+00
  20.398  0.119E+00  0.119E+00
  20.448  0.117E+00  0.117E+00
  20.498  0.113E+00  0.113E+00
  20.548  0.109E+00  0.109E+00
  20.598  0.912E-01  0.912E-01
  20.648  0.822E-01  0.822E-01
  20.698  0.749E-01  0.749E-01
  20.748  0.687E-01  0.687E-01
  20.798  0.638E-01  0.638E-01
  20.848  0.596E-01  0.596E-01
  20.898  0.542E-01  0.542E-01
  20.948  0.467E-01  0.467E-01
  20.998  0.397E-01  0.397E-01
  21.048  0.327E-01  0.327E-01
  21.098  0.268E-01  0.268E-01
  21.148  0.190E-01  0.190E-01
  21.198  0.161E-01  0.161E-01
  21.248  0.137E-01  0.137E-01
  21.298  0.118E-01  0.118E-01
  21.348  0.103E-01  0.103E-01
  21.398  0.928E-02  0.928E-02
  21.448  0.839E-02  0.839E-02
  21.498  0.746E-02  0.746E-02
  21.548  0.649E-02  0.649E-02
  21.598  0.541E-02  0.541E-02
  21.648  0.431E-02  0.431E-02
  21.698  0.334E-02  0.334E-02
  21.748  0.251E-02  0.251E-02
  21.798  0.180E-02  0.180E-02
  21.848  0.120E-02  0.120E-02
  21.898  0.727E-03  0.727E-03
  21.948  0.395E-03  0.395E-03
  21.998  0.182E-03  0.182E-03
  22.048  0.781E-04  0.781E-04
  22.098  0.293E-04  0.293E-04
