# E (eV)  dos(E)    pdos(E)
   3.148  0.120E-01  0.120E-01
   3.198  0.680E-01  0.679E-01
   3.248  0.101E+00  0.101E+00
   3.298  0.114E+00  0.114E+00
   3.348  0.130E+00  0.130E+00
   3.398  0.150E+00  0.150E+00
   3.448  0.170E+00  0.170E+00
   3.498  0.187E+00  0.187E+00
   3.548  0.194E+00  0.194E+00
   3.598  0.202E+00  0.202E+00
   3.648  0.214E+00  0.214E+00
   3.698  0.227E+00  0.227E+00
   3.748  0.240E+00  0.240E+00
   3.798  0.252E+00  0.252E+00
   3.848  0.264E+00  0.264E+00
   3.898  0.275E+00  0.275E+00
   3.948  0.282E+00  0.282E+00
   3.998  0.290E+00  0.290E+00
   4.048  0.299E+00  0.299E+00
   4.098  0.309E+00  0.309E+00
   4.148  0.319E+00  0.318E+00
   4.198  0.327E+00  0.327E+00
   4.248  0.336E+00  0.335E+00
   4.298  0.346E+00  0.345E+00
   4.348  0.356E+00  0.356E+00
   4.398  0.367E+00  0.367E+00
   4.448  0.377E+00  0.377E+00
   4.498  0.384E+00  0.384E+00
   4.548  0.391E+00  0.391E+00
   4.598  0.400E+00  0.399E+00
   4.648  0.408E+00  0.408E+00
   4.698  0.416E+00  0.416E+00
   4.748  0.425E+00  0.425E+00
   4.798  0.433E+00  0.433E+00
   4.848  0.442E+00  0.442E+00
   4.898  0.452E+00  0.452E+00
   4.948  0.462E+00  0.462E+00
   4.998  0.472E+00  0.472E+00
   5.048  0.483E+00  0.483E+00
   5.098  0.493E+00  0.493E+00
   5.148  0.497E+00  0.497E+00
   5.198  0.499E+00  0.499E+00
   5.248  0.504E+00  0.504E+00
   5.298  0.510E+00  0.510E+00
   5.348  0.518E+00  0.517E+00
   5.398  0.524E+00  0.524E+00
   5.448  0.530E+00  0.530E+00
   5.498  0.539E+00  0.538E+00
   5.548  0.549E+00  0.549E+00
   5.598  0.560E+00  0.560E+00
   5.648  0.571E+00  0.571E+00
   5.698  0.583E+00  0.583E+00
   5.748  0.598E+00  0.598E+00
   5.798  0.613E+00  0.612E+00
   5.848  0.629E+00  0.629E+00
   5.898  0.668E+00  0.667E+00
   5.948  0.707E+00  0.707E+00
   5.998  0.721E+00  0.721E+00
   6.048  0.739E+00  0.738E+00
   6.098  0.761E+00  0.760E+00
   6.148  0.783E+00  0.783E+00
   6.198  0.800E+00  0.800E+00
   6.248  0.813E+00  0.813E+00
   6.298  0.826E+00  0.825E+00
   6.348  0.843E+00  0.842E+00
   6.398  0.858E+00  0.857E+00
   6.448  0.884E+00  0.883E+00
   6.498  0.911E+00  0.910E+00
   6.548  0.929E+00  0.928E+00
   6.598  0.951E+00  0.950E+00
   6.648  0.967E+00  0.966E+00
   6.698  0.992E+00  0.991E+00
   6.748  0.103E+01  0.103E+01
   6.798  0.106E+01  0.106E+01
   6.848  0.111E+01  0.110E+01
   6.898  0.115E+01  0.115E+01
   6.948  0.121E+01  0.121E+01
   6.998  0.126E+01  0.126E+01
   7.048  0.132E+01  0.132E+01
   7.098  0.139E+01  0.139E+01
   7.148  0.146E+01  0.146E+01
   7.198  0.154E+01  0.154E+01
   7.248  0.164E+01  0.164E+01
   7.298  0.176E+01  0.176E+01
   7.348  0.213E+01  0.212E+01
   7.398  0.247E+01  0.246E+01
   7.448  0.312E+01  0.311E+01
   7.498  0.284E+01  0.283E+01
   7.548  0.290E+01  0.290E+01
   7.598  0.322E+01  0.321E+01
   7.648  0.415E+01  0.414E+01
   7.698  0.449E+01  0.448E+01
   7.748  0.452E+01  0.452E+01
   7.798  0.495E+01  0.494E+01
   7.848  0.483E+01  0.482E+01
   7.898  0.505E+01  0.504E+01
   7.948  0.515E+01  0.515E+01
   7.998  0.503E+01  0.502E+01
   8.048  0.518E+01  0.517E+01
   8.098  0.545E+01  0.544E+01
   8.148  0.666E+01  0.665E+01
   8.198  0.725E+01  0.724E+01
   8.248  0.782E+01  0.781E+01
   8.298  0.837E+01  0.836E+01
   8.348  0.901E+01  0.900E+01
   8.398  0.992E+01  0.991E+01
   8.448  0.101E+02  0.101E+02
   8.498  0.946E+01  0.945E+01
   8.548  0.857E+01  0.856E+01
   8.598  0.711E+01  0.710E+01
   8.648  0.812E+01  0.811E+01
   8.698  0.915E+01  0.914E+01
   8.748  0.963E+01  0.962E+01
   8.798  0.793E+01  0.792E+01
   8.848  0.801E+01  0.800E+01
   8.898  0.795E+01  0.794E+01
   8.948  0.844E+01  0.843E+01
   8.998  0.106E+02  0.106E+02
   9.048  0.113E+02  0.113E+02
   9.098  0.117E+02  0.117E+02
   9.148  0.122E+02  0.122E+02
   9.198  0.128E+02  0.127E+02
   9.248  0.129E+02  0.128E+02
   9.298  0.128E+02  0.128E+02
   9.348  0.129E+02  0.129E+02
   9.398  0.151E+02  0.151E+02
   9.448  0.170E+02  0.169E+02
   9.498  0.146E+02  0.146E+02
   9.548  0.180E+02  0.180E+02
   9.598  0.182E+02  0.182E+02
   9.648  0.215E+02  0.215E+02
   9.698  0.111E+02  0.111E+02
   9.748  0.129E+02  0.129E+02
   9.798  0.132E+02  0.132E+02
   9.848  0.112E+02  0.112E+02
   9.898  0.103E+02  0.103E+02
   9.948  0.107E+02  0.107E+02
   9.998  0.108E+02  0.108E+02
  10.048  0.116E+02  0.116E+02
  10.098  0.145E+02  0.145E+02
  10.148  0.138E+02  0.138E+02
  10.198  0.127E+02  0.127E+02
  10.248  0.156E+02  0.156E+02
  10.298  0.152E+02  0.152E+02
  10.348  0.158E+02  0.158E+02
  10.398  0.141E+02  0.141E+02
  10.448  0.117E+02  0.117E+02
  10.498  0.124E+02  0.124E+02
  10.548  0.131E+02  0.131E+02
  10.598  0.140E+02  0.140E+02
  10.648  0.137E+02  0.137E+02
  10.698  0.151E+02  0.151E+02
  10.748  0.197E+02  0.197E+02
  10.798  0.211E+02  0.211E+02
  10.848  0.274E+02  0.274E+02
  10.898  0.184E+02  0.184E+02
  10.948  0.116E+02  0.116E+02
  10.998  0.682E+01  0.681E+01
  11.048  0.197E+01  0.197E+01
  11.098  0.191E+01  0.191E+01
  11.148  0.183E+01  0.183E+01
  11.198  0.175E+01  0.175E+01
  11.248  0.164E+01  0.164E+01
  11.298  0.160E+01  0.160E+01
  11.348  0.157E+01  0.156E+01
  11.398  0.155E+01  0.154E+01
  11.448  0.154E+01  0.154E+01
  11.498  0.153E+01  0.153E+01
  11.548  0.151E+01  0.151E+01
  11.598  0.148E+01  0.148E+01
  11.648  0.146E+01  0.146E+01
  11.698  0.138E+01  0.138E+01
  11.748  0.135E+01  0.135E+01
  11.798  0.138E+01  0.138E+01
  11.848  0.139E+01  0.139E+01
  11.898  0.137E+01  0.137E+01
  11.948  0.137E+01  0.137E+01
  11.998  0.135E+01  0.135E+01
  12.048  0.133E+01  0.133E+01
  12.098  0.132E+01  0.132E+01
  12.148  0.136E+01  0.136E+01
  12.198  0.131E+01  0.131E+01
  12.248  0.128E+01  0.128E+01
  12.298  0.124E+01  0.123E+01
  12.348  0.124E+01  0.124E+01
  12.398  0.124E+01  0.124E+01
  12.448  0.124E+01  0.124E+01
  12.498  0.124E+01  0.124E+01
  12.548  0.125E+01  0.125E+01
  12.598  0.126E+01  0.125E+01
  12.648  0.127E+01  0.127E+01
  12.698  0.129E+01  0.128E+01
  12.748  0.129E+01  0.129E+01
  12.798  0.128E+01  0.127E+01
  12.848  0.122E+01  0.121E+01
  12.898  0.118E+01  0.117E+01
  12.948  0.116E+01  0.116E+01
  12.998  0.119E+01  0.118E+01
  13.048  0.117E+01  0.117E+01
  13.098  0.114E+01  0.113E+01
  13.148  0.110E+01  0.110E+01
  13.198  0.108E+01  0.108E+01
  13.248  0.106E+01  0.106E+01
  13.298  0.107E+01  0.106E+01
  13.348  0.106E+01  0.106E+01
  13.398  0.105E+01  0.104E+01
  13.448  0.104E+01  0.104E+01
  13.498  0.104E+01  0.104E+01
  13.548  0.105E+01  0.105E+01
  13.598  0.107E+01  0.106E+01
  13.648  0.108E+01  0.107E+01
  13.698  0.106E+01  0.105E+01
  13.748  0.104E+01  0.104E+01
  13.798  0.104E+01  0.104E+01
  13.848  0.104E+01  0.104E+01
  13.898  0.105E+01  0.105E+01
  13.948  0.106E+01  0.105E+01
  13.998  0.107E+01  0.106E+01
  14.048  0.108E+01  0.107E+01
  14.098  0.109E+01  0.108E+01
  14.148  0.107E+01  0.107E+01
  14.198  0.104E+01  0.103E+01
  14.248  0.102E+01  0.101E+01
  14.298  0.100E+01  0.995E+00
  14.348  0.981E+00  0.975E+00
  14.398  0.965E+00  0.959E+00
  14.448  0.950E+00  0.944E+00
  14.498  0.935E+00  0.929E+00
  14.548  0.920E+00  0.914E+00
  14.598  0.897E+00  0.891E+00
  14.648  0.891E+00  0.885E+00
  14.698  0.882E+00  0.876E+00
  14.748  0.873E+00  0.867E+00
  14.798  0.867E+00  0.861E+00
  14.848  0.858E+00  0.852E+00
  14.898  0.849E+00  0.842E+00
  14.948  0.845E+00  0.838E+00
  14.998  0.841E+00  0.834E+00
  15.048  0.832E+00  0.825E+00
  15.098  0.826E+00  0.819E+00
  15.148  0.816E+00  0.809E+00
  15.198  0.805E+00  0.798E+00
  15.248  0.800E+00  0.793E+00
  15.298  0.794E+00  0.787E+00
  15.348  0.785E+00  0.778E+00
  15.398  0.775E+00  0.768E+00
  15.448  0.764E+00  0.757E+00
  15.498  0.719E+00  0.712E+00
  15.548  0.706E+00  0.699E+00
  15.598  0.694E+00  0.687E+00
  15.648  0.683E+00  0.676E+00
  15.698  0.667E+00  0.661E+00
  15.748  0.655E+00  0.648E+00
  15.798  0.639E+00  0.632E+00
  15.848  0.623E+00  0.616E+00
  15.898  0.610E+00  0.603E+00
  15.948  0.601E+00  0.594E+00
  15.998  0.593E+00  0.586E+00
  16.048  0.584E+00  0.578E+00
  16.098  0.584E+00  0.577E+00
  16.148  0.611E+00  0.604E+00
  16.198  0.701E+00  0.693E+00
  16.248  0.830E+00  0.820E+00
  16.298  0.100E+01  0.988E+00
  16.348  0.105E+01  0.104E+01
  16.398  0.101E+01  0.998E+00
  16.448  0.104E+01  0.102E+01
  16.498  0.112E+01  0.110E+01
  16.548  0.115E+01  0.114E+01
  16.598  0.117E+01  0.116E+01
  16.648  0.112E+01  0.110E+01
  16.698  0.111E+01  0.109E+01
  16.748  0.111E+01  0.109E+01
  16.798  0.113E+01  0.112E+01
  16.848  0.118E+01  0.116E+01
  16.898  0.117E+01  0.115E+01
  16.948  0.110E+01  0.108E+01
  16.998  0.107E+01  0.105E+01
  17.048  0.106E+01  0.104E+01
  17.098  0.103E+01  0.101E+01
  17.148  0.975E+00  0.960E+00
  17.198  0.944E+00  0.929E+00
  17.248  0.936E+00  0.921E+00
  17.298  0.965E+00  0.950E+00
  17.348  0.995E+00  0.980E+00
  17.398  0.102E+01  0.100E+01
  17.448  0.101E+01  0.998E+00
  17.498  0.102E+01  0.100E+01
  17.548  0.102E+01  0.100E+01
  17.598  0.101E+01  0.998E+00
  17.648  0.103E+01  0.101E+01
  17.698  0.106E+01  0.105E+01
  17.748  0.102E+01  0.999E+00
  17.798  0.977E+00  0.961E+00
  17.848  0.975E+00  0.959E+00
  17.898  0.974E+00  0.958E+00
  17.948  0.973E+00  0.956E+00
  17.998  0.953E+00  0.937E+00
  18.048  0.936E+00  0.919E+00
  18.098  0.922E+00  0.905E+00
  18.148  0.909E+00  0.892E+00
  18.198  0.899E+00  0.882E+00
  18.248  0.886E+00  0.869E+00
  18.298  0.870E+00  0.853E+00
  18.348  0.852E+00  0.836E+00
  18.398  0.843E+00  0.827E+00
  18.448  0.834E+00  0.818E+00
  18.498  0.826E+00  0.810E+00
  18.548  0.822E+00  0.806E+00
  18.598  0.823E+00  0.807E+00
  18.648  0.840E+00  0.823E+00
  18.698  0.858E+00  0.841E+00
  18.748  0.841E+00  0.824E+00
  18.798  0.818E+00  0.802E+00
  18.848  0.785E+00  0.768E+00
  18.898  0.761E+00  0.745E+00
  18.948  0.743E+00  0.727E+00
  18.998  0.728E+00  0.713E+00
  19.048  0.716E+00  0.701E+00
  19.098  0.707E+00  0.692E+00
  19.148  0.700E+00  0.685E+00
  19.198  0.694E+00  0.679E+00
  19.248  0.687E+00  0.672E+00
  19.298  0.680E+00  0.665E+00
  19.348  0.674E+00  0.659E+00
  19.398  0.671E+00  0.656E+00
  19.448  0.717E+00  0.698E+00
  19.498  0.753E+00  0.732E+00
  19.548  0.874E+00  0.848E+00
  19.598  0.801E+00  0.778E+00
  19.648  0.832E+00  0.808E+00
  19.698  0.900E+00  0.873E+00
  19.748  0.934E+00  0.906E+00
  19.798  0.922E+00  0.893E+00
  19.848  0.936E+00  0.907E+00
  19.898  0.988E+00  0.957E+00
  19.948  0.100E+01  0.973E+00
  19.998  0.102E+01  0.990E+00
  20.048  0.105E+01  0.102E+01
  20.098  0.104E+01  0.100E+01
  20.148  0.104E+01  0.100E+01
  20.198  0.105E+01  0.101E+01
  20.248  0.113E+01  0.109E+01
  20.298  0.116E+01  0.111E+01
  20.348  0.109E+01  0.105E+01
  20.398  0.105E+01  0.101E+01
  20.448  0.103E+01  0.993E+00
  20.498  0.100E+01  0.963E+00
  20.548  0.964E+00  0.927E+00
  20.598  0.832E+00  0.800E+00
  20.648  0.762E+00  0.733E+00
  20.698  0.707E+00  0.680E+00
  20.748  0.662E+00  0.637E+00
  20.798  0.626E+00  0.601E+00
  20.848  0.595E+00  0.572E+00
  20.898  0.556E+00  0.535E+00
  20.948  0.501E+00  0.481E+00
  20.998  0.439E+00  0.423E+00
  21.048  0.378E+00  0.363E+00
  21.098  0.325E+00  0.313E+00
  21.148  0.248E+00  0.238E+00
  21.198  0.214E+00  0.206E+00
  21.248  0.184E+00  0.177E+00
  21.298  0.153E+00  0.147E+00
  21.348  0.128E+00  0.123E+00
  21.398  0.108E+00  0.103E+00
  21.448  0.921E-01  0.882E-01
  21.498  0.794E-01  0.760E-01
  21.548  0.677E-01  0.647E-01
  21.598  0.564E-01  0.538E-01
  21.648  0.454E-01  0.433E-01
  21.698  0.361E-01  0.344E-01
  21.748  0.284E-01  0.271E-01
  21.798  0.218E-01  0.208E-01
  21.848  0.163E-01  0.155E-01
  21.898  0.118E-01  0.112E-01
  21.948  0.826E-02  0.785E-02
  21.998  0.558E-02  0.529E-02
  22.048  0.370E-02  0.351E-02
  22.098  0.232E-02  0.219E-02
